Unit Serial No : Xe_Mono_Cal
Integration Time : 2 ms
Time Average: 15
Binning Average: 10
FFT Smoothing: 10%
Project Name : Project Name
Sample Name : 0068
Measurement No : 1
Measurement Time : 11/11/2024   12:00:00

Pixel	Wavelength(nm)	Wavenumber(1/cm)	Intensity(Counts)
1    	171.7139      	58236.3993    	1173    
2    	172.0962      	58107.0281    	1175    
3    	172.4786      	57978.2150    	1178    
4    	172.8610      	57849.9615    	1179    
5    	173.2434      	57722.2641    	1180    
6    	173.6258      	57595.1190    	1185    
7    	174.0083      	57468.5178    	1185    
8    	174.3908      	57342.4618    	1184    
9    	174.7734      	57216.9476    	1183    
10   	175.1560      	57091.9668    	1183    
11   	175.5386      	56967.5258    	1183    
12   	175.9213      	56843.6064    	1183    
13   	176.3040      	56720.2201    	1184    
14   	176.6867      	56597.3536    	1185    
15   	177.0695      	56475.0085    	1190    
16   	177.4523      	56353.1815    	1192    
17   	177.8351      	56231.8645    	1193    
18   	178.2180      	56111.0591    	1193    
19   	178.6009      	55990.7621    	1193    
20   	178.9838      	55870.9703    	1193    
21   	179.3668      	55751.6757    	1193    
22   	179.7498      	55632.8800    	1192    
23   	180.1329      	55514.5802    	1192    
24   	180.5159      	55396.7683    	1191    
25   	180.8991      	55279.4461    	1192    
26   	181.2822      	55162.6104    	1195    
27   	181.6654      	55046.2538    	1191    
28   	182.0486      	54930.3823    	1191    
29   	182.4319      	54814.9840    	1191    
30   	182.8152      	54700.0557    	1191    
31   	183.1985      	54585.6038    	1190    
32   	183.5818      	54471.6163    	1187    
33   	183.9652      	54358.0949    	1184    
34   	184.3487      	54245.0322    	1183    
35   	184.7321      	54132.4298    	1182    
36   	185.1156      	54020.2851    	1181    
37   	185.4992      	53908.5953    	1181    
38   	185.8828      	53797.3530    	1181    
39   	186.2664      	53686.5601    	1181    
40   	186.6500      	53576.2139    	1182    
41   	187.0337      	53466.3116    	1182    
42   	187.4174      	53356.8463    	1182    
43   	187.8011      	53247.8196    	1182    
44   	188.1849      	53139.2290    	1180    
45   	188.5687      	53031.0675    	1180    
46   	188.9526      	52923.3368    	1183    
47   	189.3364      	52816.0345    	1181    
48   	189.7204      	52709.1579    	1182    
49   	190.1043      	52602.7003    	1182    
50   	190.4883      	52496.6635    	1183    
51   	190.8723      	52391.0449    	1184    
52   	191.2564      	52285.8380    	1184    
53   	191.6405      	52181.0444    	1187    
54   	192.0246      	52076.6618    	1188    
55   	192.4088      	51972.6877    	1188    
56   	192.7930      	51869.1156    	1187    
57   	193.1772      	51765.9474    	1186    
58   	193.5614      	51663.1806    	1186    
59   	193.9457      	51560.8129    	1186    
60   	194.3301      	51458.8380    	1186    
61   	194.7144      	51357.2575    	1187    
62   	195.0988      	51256.0693    	1186    
63   	195.4833      	51155.2671    	1186    
64   	195.8678      	51054.8526    	1187    
65   	196.2523      	50954.8237    	1186    
66   	196.6368      	50855.1781    	1185    
67   	197.0214      	50755.9096    	1181    
68   	197.4060      	50657.0201    	1180    
69   	197.7906      	50558.5073    	1183    
70   	198.1753      	50460.3654    	1184    
71   	198.5601      	50362.5959    	1185    
72   	198.9448      	50265.1969    	1184    
73   	199.3296      	50168.1662    	1183    
74   	199.7144      	50071.4980    	1183    
75   	200.0993      	49975.1939    	1182    
76   	200.4842      	49879.2520    	1182    
77   	200.8691      	49783.6701    	1181    
78   	201.2540      	49688.4426    	1180    
79   	201.6390      	49593.5712    	1179    
80   	202.0241      	49499.0540    	1179    
81   	202.4091      	49404.8851    	1180    
82   	202.7942      	49311.0701    	1180    
83   	203.1794      	49217.5997    	1181    
84   	203.5645      	49124.4719    	1185    
85   	203.9497      	49031.6922    	1186    
86   	204.3350      	48939.2513    	1187    
87   	204.7202      	48847.1510    	1187    
88   	205.1055      	48755.3859    	1186    
89   	205.4909      	48663.9613    	1184    
90   	205.8763      	48572.8681    	1178    
91   	206.2617      	48482.1046    	1177    
92   	206.6471      	48391.6760    	1176    
93   	207.0326      	48301.5735    	1178    
94   	207.4181      	48211.7988    	1181    
95   	207.8036      	48122.3501    	1182    
96   	208.1892      	48033.2222    	1183    
97   	208.5748      	47944.4203    	1185    
98   	208.9605      	47855.9356    	1186    
99   	209.3462      	47767.7666    	1187    
100  	209.7319      	47679.9183    	1187    
101  	210.1177      	47592.3822    	1187    
102  	210.5034      	47505.1600    	1187    
103  	210.8893      	47418.2466    	1187    
104  	211.2751      	47331.6439    	1188    
105  	211.6610      	47245.3501    	1184    
106  	212.0470      	47159.3636    	1184    
107  	212.4329      	47073.6828    	1189    
108  	212.8189      	46988.3026    	1190    
109  	213.2050      	46903.2249    	1191    
110  	213.5910      	46818.4480    	1190    
111  	213.9771      	46733.9670    	1189    
112  	214.3633      	46649.7871    	1188    
113  	214.7494      	46565.8966    	1189    
114  	215.1356      	46482.3040    	1189    
115  	215.5219      	46399.0044    	1188    
116  	215.9081      	46315.9930    	1188    
117  	216.2944      	46233.2716    	1188    
118  	216.6808      	46150.8354    	1188    
119  	217.0672      	46068.6894    	1188    
120  	217.4536      	45986.8257    	1188    
121  	217.8400      	45905.2459    	1190    
122  	218.2265      	45823.9455    	1194    
123  	218.6130      	45742.9293    	1193    
124  	218.9996      	45662.1895    	1192    
125  	219.3862      	45581.7280    	1192    
126  	219.7728      	45501.5400    	1193    
127  	220.1594      	45421.6274    	1196    
128  	220.5461      	45341.9886    	1192    
129  	220.9328      	45262.6225    	1192    
130  	221.3196      	45183.5274    	1192    
131  	221.7064      	45104.6990    	1195    
132  	222.0932      	45026.1389    	1196    
133  	222.4801      	44947.8459    	1196    
134  	222.8670      	44869.8155    	1196    
135  	223.2539      	44792.0525    	1194    
136  	223.6409      	44714.5494    	1194    
137  	224.0279      	44637.3049    	1192    
138  	224.4149      	44560.3238    	1192    
139  	224.8020      	44483.5987    	1193    
140  	225.1891      	44407.1313    	1194    
141  	225.5762      	44330.9204    	1194    
142  	225.9634      	44254.9617    	1195    
143  	226.3506      	44179.2568    	1191    
144  	226.7378      	44103.8046    	1192    
145  	227.1251      	44028.6038    	1191    
146  	227.5124      	43953.6531    	1190    
147  	227.8997      	43878.9483    	1191    
148  	228.2871      	43804.4912    	1185    
149  	228.6745      	43730.2776    	1185    
150  	229.0620      	43656.3121    	1184    
151  	229.4494      	43582.5877    	1184    
152  	229.8369      	43509.1061    	1185    
153  	230.2245      	43435.8661    	1184    
154  	230.6121      	43362.8637    	1183    
155  	230.9997      	43290.1005    	1182    
156  	231.3873      	43217.5754    	1183    
157  	231.7750      	43145.2872    	1183    
158  	232.1628      	43073.2320    	1183    
159  	232.5505      	43001.4142    	1182    
160  	232.9383      	42929.8271    	1180    
161  	233.3261      	42858.4695    	1180    
162  	233.7140      	42787.3459    	1181    
163  	234.1019      	42716.4497    	1180    
164  	234.4898      	42645.7824    	1181    
165  	234.8777      	42575.3403    	1184    
166  	235.2657      	42505.1278    	1186    
167  	235.6538      	42435.1382    	1186    
168  	236.0418      	42365.3733    	1185    
169  	236.4299      	42295.8319    	1185    
170  	236.8181      	42226.5103    	1183    
171  	237.2062      	42157.4101    	1183    
172  	237.5944      	42088.5303    	1184    
173  	237.9827      	42019.8698    	1183    
174  	238.3709      	41951.4276    	1186    
175  	238.7592      	41883.2000    	1189    
176  	239.1476      	41815.1886    	1190    
177  	239.5359      	41747.3923    	1190    
178  	239.9243      	41679.8077    	1191    
179  	240.3128      	41612.4362    	1191    
180  	240.7012      	41545.2769    	1191    
181  	241.0898      	41478.3288    	1191    
182  	241.4783      	41411.5908    	1191    
183  	241.8669      	41345.0595    	1189    
184  	242.2555      	41278.7363    	1189    
185  	242.6441      	41212.6205    	1192    
186  	243.0328      	41146.7083    	1188    
187  	243.4215      	41081.0041    	1188    
188  	243.8103      	41015.5017    	1188    
189  	244.1991      	40950.2001    	1188    
190  	244.5879      	40885.1036    	1189    
191  	244.9767      	40820.2061    	1187    
192  	245.3656      	40755.5092    	1185    
193  	245.7545      	40691.0121    	1183    
194  	246.1435      	40626.7137    	1182    
195  	246.5325      	40562.6106    	1182    
196  	246.9215      	40498.7071    	1182    
197  	247.3105      	40434.9946    	1182    
198  	247.6996      	40371.4797    	1183    
199  	248.0887      	40308.1591    	1184    
200  	248.4779      	40245.0294    	1185    
201  	248.8671      	40182.0923    	1184    
202  	249.2563      	40119.3443    	1185    
203  	249.6456      	40056.7895    	1189    
204  	250.0349      	39994.4222    	1190    
205  	250.4242      	39932.2439    	1189    
206  	250.8136      	39870.2538    	1185    
207  	251.2030      	39808.4486    	1185    
208  	251.5924      	39746.8323    	1185    
209  	251.9818      	39685.3992    	1185    
210  	252.3713      	39624.1510    	1186    
211  	252.7609      	39563.0844    	1185    
212  	253.1504      	39502.2033    	1189    
213  	253.5400      	39441.5022    	1190    
214  	253.9297      	39380.9826    	1191    
215  	254.3194      	39320.6414    	1191    
216  	254.7090      	39260.4824    	1191    
217  	255.0988      	39200.5002    	1190    
218  	255.4886      	39140.6964    	1189    
219  	255.8784      	39081.0678    	1189    
220  	256.2682      	39021.6159    	1189    
221  	256.6581      	38962.3423    	1189    
222  	257.0480      	38903.2439    	1189    
223  	257.4379      	38844.3152    	1191    
224  	257.8279      	38785.5603    	1187    
225  	258.2179      	38726.9782    	1187    
226  	258.6080      	38668.5683    	1186    
227  	258.9980      	38610.3298    	1186    
228  	259.3882      	38552.2619    	1189    
229  	259.7783      	38494.3638    	1189    
230  	260.1685      	38436.6349    	1189    
231  	260.5587      	38379.0699    	1186    
232  	260.9489      	38321.6726    	1186    
233  	261.3392      	38264.4467    	1186    
234  	261.7295      	38207.3826    	1187    
235  	262.1199      	38150.4839    	1188    
236  	262.5103      	38093.7501    	1188    
237  	262.9007      	38037.1759    	1189    
238  	263.2911      	37980.7695    	1189    
239  	263.6816      	37924.5257    	1188    
240  	264.0721      	37868.4395    	1187    
241  	264.4627      	37812.5146    	1185    
242  	264.8533      	37756.7547    	1186    
243  	265.2439      	37701.1503    	1189    
244  	265.6346      	37645.7051    	1189    
245  	266.0252      	37590.4184    	1190    
246  	266.4160      	37535.2853    	1190    
247  	266.8067      	37480.3136    	1192    
248  	267.1975      	37425.4985    	1192    
249  	267.5883      	37370.8349    	1188    
250  	267.9792      	37316.3266    	1187    
251  	268.3701      	37261.9728    	1186    
252  	268.7610      	37207.7771    	1187    
253  	269.1520      	37153.7304    	1189    
254  	269.5430      	37099.8320    	1189    
255  	269.9340      	37046.0899    	1190    
256  	270.3251      	36992.4990    	1190    
257  	270.7162      	36939.0546    	1191    
258  	271.1073      	36885.7644    	1191    
259  	271.4985      	36832.6195    	1191    
260  	271.8897      	36779.6234    	1191    
261  	272.2809      	36726.7755    	1192    
262  	272.6722      	36674.0751    	1191    
263  	273.0635      	36621.5216    	1190    
264  	273.4548      	36569.1144    	1186    
265  	273.8462      	36516.8530    	1186    
266  	274.2376      	36464.7326    	1190    
267  	274.6290      	36412.7608    	1192    
268  	275.0205      	36360.9288    	1193    
269  	275.4120      	36309.2402    	1192    
270  	275.8035      	36257.6943    	1191    
271  	276.1951      	36206.2906    	1191    
272  	276.5867      	36155.0284    	1192    
273  	276.9783      	36103.9072    	1192    
274  	277.3700      	36052.9263    	1191    
275  	277.7617      	36002.0814    	1190    
276  	278.1534      	35951.3796    	1189    
277  	278.5452      	35900.8126    	1189    
278  	278.9370      	35850.3837    	1190    
279  	279.3289      	35800.0924    	1190    
280  	279.7208      	35749.9381    	1191    
281  	280.1127      	35699.9202    	1195    
282  	280.5046      	35650.0382    	1196    
283  	280.8966      	35600.2916    	1196    
284  	281.2886      	35550.6758    	1196    
285  	281.6806      	35501.1982    	1196    
286  	282.0727      	35451.8504    	1194    
287  	282.4648      	35402.6358    	1189    
288  	282.8570      	35353.5539    	1188    
289  	283.2491      	35304.6078    	1188    
290  	283.6414      	35255.7857    	1191    
291  	284.0336      	35207.0985    	1193    
292  	284.4259      	35158.5418    	1195    
293  	284.8182      	35110.1150    	1197    
294  	285.2106      	35061.8140    	1196    
295  	285.6029      	35013.6457    	1197    
296  	285.9954      	34965.6021    	1197    
297  	286.3878      	34917.6864    	1197    
298  	286.7803      	34869.8982    	1196    
299  	287.1728      	34822.2369    	1195    
300  	287.5654      	34774.7020    	1195    
301  	287.9579      	34727.2930    	1197    
302  	288.3506      	34680.0058    	1193    
303  	288.7432      	34632.8472    	1194    
304  	289.1359      	34585.8094    	1193    
305  	289.5286      	34538.8992    	1194    
306  	289.9214      	34492.1088    	1198    
307  	290.3142      	34445.4413    	1199    
308  	290.7070      	34398.8964    	1198    
309  	291.0999      	34352.4735    	1197    
310  	291.4927      	34306.1721    	1196    
311  	291.8857      	34259.9918    	1196    
312  	292.2786      	34213.9285    	1193    
313  	292.6716      	34167.9889    	1191    
314  	293.0646      	34122.1654    	1189    
315  	293.4577      	34076.4647    	1190    
316  	293.8508      	34030.8791    	1190    
317  	294.2439      	33985.4118    	1189    
318  	294.6371      	33940.0624    	1189    
319  	295.0302      	33894.8302    	1189    
320  	295.4235      	33849.7150    	1188    
321  	295.8167      	33804.7128    	1188    
322  	296.2100      	33759.8300    	1185    
323  	296.6033      	33715.0629    	1186    
324  	296.9967      	33670.4073    	1191    
325  	297.3901      	33625.8665    	1192    
326  	297.7835      	33581.4399    	1192    
327  	298.1770      	33537.1271    	1189    
328  	298.5705      	33492.9276    	1189    
329  	298.9640      	33448.8411    	1188    
330  	299.3576      	33404.8671    	1188    
331  	299.7512      	33361.0052    	1188    
332  	300.1448      	33317.2516    	1187    
333  	300.5385      	33273.6125    	1190    
334  	300.9322      	33230.0809    	1191    
335  	301.3259      	33186.6630    	1192    
336  	301.7196      	33143.3518    	1193    
337  	302.1134      	33100.1501    	1194    
338  	302.5073      	33057.0575    	1195    
339  	302.9011      	33014.0737    	1197    
340  	303.2950      	32971.1949    	1197    
341  	303.6890      	32928.4273    	1197    
342  	304.0829      	32885.7672    	1196    
343  	304.4769      	32843.2110    	1196    
344  	304.8709      	32800.7647    	1198    
345  	305.2650      	32758.4214    	1194    
346  	305.6591      	32716.1841    	1193    
347  	306.0533      	32674.0523    	1194    
348  	306.4474      	32632.0256    	1194    
349  	306.8416      	32590.1037    	1195    
350  	307.2358      	32548.2860    	1194    
351  	307.6301      	32506.5724    	1193    
352  	308.0244      	32464.9591    	1192    
353  	308.4187      	32423.4522    	1193    
354  	308.8131      	32382.0449    	1192    
355  	309.2075      	32340.7400    	1191    
356  	309.6019      	32299.5404    	1191    
357  	309.9964      	32258.4392    	1190    
358  	310.3909      	32217.4394    	1190    
359  	310.7854      	32176.5405    	1190    
360  	311.1800      	32135.7390    	1189    
361  	311.5746      	32095.0408    	1190    
362  	311.9692      	32054.4425    	1194    
363  	312.3639      	32013.9404    	1195    
364  	312.7586      	31973.5406    	1194    
365  	313.1534      	31933.2365    	1191    
366  	313.5481      	31893.0307    	1190    
367  	313.9429      	31852.9229    	1189    
368  	314.3378      	31812.9127    	1188    
369  	314.7326      	31772.9999    	1189    
370  	315.1275      	31733.1840    	1188    
371  	315.5225      	31693.4648    	1191    
372  	315.9174      	31653.8417    	1194    
373  	316.3124      	31614.3116    	1195    
374  	316.7075      	31574.8800    	1196    
375  	317.1025      	31535.5406    	1195    
376  	317.4977      	31496.2961    	1195    
377  	317.8928      	31457.1491    	1195    
378  	318.2879      	31418.0933    	1194    
379  	318.6831      	31379.1314    	1193    
380  	319.0784      	31340.2630    	1192    
381  	319.4737      	31301.4847    	1193    
382  	319.8690      	31262.8024    	1194    
383  	320.2643      	31224.2125    	1189    
384  	320.6597      	31185.7118    	1190    
385  	321.0551      	31147.3060    	1190    
386  	321.4505      	31108.9887    	1191    
387  	321.8460      	31070.7627    	1195    
388  	322.2415      	31032.6275    	1195    
389  	322.6370      	30994.5829    	1195    
390  	323.0326      	30956.6286    	1191    
391  	323.4282      	30918.7642    	1189    
392  	323.8238      	30880.9894    	1189    
393  	324.2195      	30843.3038    	1189    
394  	324.6152      	30805.7044    	1189    
395  	325.0109      	30768.1965    	1189    
396  	325.4067      	30730.7740    	1190    
397  	325.8025      	30693.4425    	1191    
398  	326.1983      	30656.1958    	1192    
399  	326.5942      	30619.0366    	1192    
400  	326.9901      	30581.9645    	1191    
401  	327.3860      	30544.9792    	1191    
402  	327.7820      	30508.0804    	1194    
403  	328.1780      	30471.2678    	1193    
404  	328.5741      	30434.5383    	1194    
405  	328.9701      	30397.8972    	1194    
406  	329.3662      	30361.3387    	1195    
407  	329.7624      	30324.8679    	1195    
408  	330.1585      	30288.4791    	1191    
409  	330.5547      	30252.1747    	1191    
410  	330.9510      	30215.9572    	1191    
411  	331.3472      	30179.8208    	1192    
412  	331.7435      	30143.7680    	1194    
413  	332.1399      	30107.7956    	1193    
414  	332.5363      	30071.9090    	1192    
415  	332.9326      	30036.1051    	1192    
416  	333.3291      	30000.3809    	1192    
417  	333.7256      	29964.7415    	1193    
418  	334.1221      	29929.1812    	1194    
419  	334.5186      	29893.7053    	1196    
420  	334.9152      	29858.3079    	1197    
421  	335.3118      	29822.9915    	1198    
422  	335.7084      	29787.7559    	1199    
423  	336.1051      	29752.6007    	1195    
424  	336.5018      	29717.5257    	1196    
425  	336.8985      	29682.5306    	1200    
426  	337.2953      	29647.6152    	1200    
427  	337.6921      	29612.7764    	1201    
428  	338.0889      	29578.0195    	1201    
429  	338.4858      	29543.3387    	1201    
430  	338.8827      	29508.7391    	1201    
431  	339.2796      	29474.2152    	1203    
432  	339.6766      	29439.7693    	1204    
433  	340.0736      	29405.4012    	1203    
434  	340.4706      	29371.1106    	1204    
435  	340.8677      	29336.8973    	1204    
436  	341.2648      	29302.7610    	1204    
437  	341.6619      	29268.7014    	1204    
438  	342.0591      	29234.7157    	1202    
439  	342.4563      	29200.8088    	1202    
440  	342.8535      	29166.9778    	1204    
441  	343.2508      	29133.2200    	1203    
442  	343.6481      	29099.5377    	1204    
443  	344.0454      	29065.9331    	1204    
444  	344.4427      	29032.4010    	1204    
445  	344.8401      	28998.9435    	1202    
446  	345.2376      	28965.5605    	1197    
447  	345.6350      	28932.2518    	1197    
448  	346.0325      	28899.0170    	1197    
449  	346.4301      	28865.8533    	1199    
450  	346.8276      	28832.7657    	1201    
451  	347.2253      	28799.7488    	1201    
452  	347.6229      	28766.8075    	1202    
453  	348.0205      	28733.9364    	1203    
454  	348.4182      	28701.1403    	1205    
455  	348.8159      	28668.4139    	1204    
456  	349.2137      	28635.7597    	1204    
457  	349.6115      	28603.1772    	1205    
458  	350.0093      	28570.6663    	1204    
459  	350.4072      	28538.2267    	1205    
460  	350.8051      	28505.8582    	1206    
461  	351.2030      	28473.5606    	1204    
462  	351.6010      	28441.3312    	1205    
463  	351.9990      	28409.1747    	1206    
464  	352.3970      	28377.0858    	1208    
465  	352.7950      	28345.0694    	1212    
466  	353.1931      	28313.1202    	1214    
467  	353.5913      	28281.2406    	1214    
468  	353.9894      	28249.4302    	1212    
469  	354.3876      	28217.6889    	1211    
470  	354.7859      	28186.0164    	1209    
471  	355.1841      	28154.4124    	1206    
472  	355.5824      	28122.8769    	1203    
473  	355.9807      	28091.4096    	1203    
474  	356.3791      	28060.0101    	1204    
475  	356.7775      	28028.6760    	1205    
476  	357.1759      	27997.4118    	1206    
477  	357.5743      	27966.2125    	1206    
478  	357.9728      	27935.0803    	1205    
479  	358.3713      	27904.0173    	1205    
480  	358.7699      	27873.0185    	1204    
481  	359.1685      	27842.0862    	1202    
482  	359.5671      	27811.2201    	1202    
483  	359.9658      	27780.4201    	1205    
484  	360.3644      	27749.6858    	1205    
485  	360.7632      	27719.0147    	1204    
486  	361.1619      	27688.4114    	1200    
487  	361.5607      	27657.8733    	1200    
488  	361.9595      	27627.3977    	1200    
489  	362.3584      	27596.9893    	1201    
490  	362.7573      	27566.6431    	1202    
491  	363.1562      	27536.3612    	1202    
492  	363.5551      	27506.1458    	1205    
493  	363.9541      	27475.9920    	1207    
494  	364.3531      	27445.9020    	1206    
495  	364.7522      	27415.8755    	1206    
496  	365.1512      	27385.9124    	1205    
497  	365.5504      	27356.0124    	1206    
498  	365.9495      	27326.1730    	1208    
499  	366.3487      	27296.3987    	1208    
500  	366.7479      	27266.6869    	1209    
501  	367.1472      	27237.0352    	1209    
502  	367.5464      	27207.4479    	1209    
503  	367.9457      	27177.9203    	1211    
504  	368.3451      	27148.4545    	1206    
505  	368.7444      	27119.0525    	1206    
506  	369.1439      	27089.7097    	1206    
507  	369.5433      	27060.4280    	1206    
508  	369.9428      	27031.2074    	1209    
509  	370.3423      	27002.0476    	1208    
510  	370.7419      	26972.9461    	1207    
511  	371.1414      	26943.9074    	1207    
512  	371.5410      	26914.9288    	1208    
513  	371.9407      	26886.0082    	1207    
514  	372.3403      	26857.1496    	1207    
515  	372.7401      	26828.3485    	1206    
516  	373.1398      	26799.6091    	1205    
517  	373.5396      	26770.9269    	1204    
518  	373.9394      	26742.3038    	1205    
519  	374.3392      	26713.7418    	1204    
520  	374.7390      	26685.2364    	1205    
521  	375.1389      	26656.7897    	1210    
522  	375.5389      	26628.4013    	1212    
523  	375.9389      	26600.0691    	1212    
524  	376.3389      	26571.7970    	1210    
525  	376.7389      	26543.5829    	1210    
526  	377.1390      	26515.4243    	1209    
527  	377.5391      	26487.3254    	1208    
528  	377.9392      	26459.2838    	1208    
529  	378.3394      	26431.2973    	1206    
530  	378.7396      	26403.3678    	1208    
531  	379.1398      	26375.4973    	1210    
532  	379.5400      	26347.6813    	1211    
533  	379.9403      	26319.9218    	1212    
534  	380.3407      	26292.2187    	1212    
535  	380.7410      	26264.5716    	1212    
536  	381.1414      	26236.9806    	1213    
537  	381.5418      	26209.4454    	1213    
538  	381.9423      	26181.9637    	1213    
539  	382.3428      	26154.5396    	1210    
540  	382.7433      	26127.1708    	1209    
541  	383.1439      	26099.8550    	1208    
542  	383.5445      	26072.5964    	1204    
543  	383.9451      	26045.3904    	1204    
544  	384.3458      	26018.2391    	1205    
545  	384.7464      	25991.1444    	1206    
546  	385.1472      	25964.1019    	1212    
547  	385.5479      	25937.1136    	1214    
548  	385.9487      	25910.1793    	1214    
549  	386.3495      	25883.2988    	1211    
550  	386.7504      	25856.4720    	1210    
551  	387.1512      	25829.6987    	1210    
552  	387.5522      	25802.9767    	1209    
553  	387.9531      	25776.3100    	1209    
554  	388.3541      	25749.6963    	1210    
555  	388.7551      	25723.1334    	1212    
556  	389.1562      	25696.6253    	1214    
557  	389.5573      	25670.1678    	1214    
558  	389.9584      	25643.7627    	1216    
559  	390.3595      	25617.4118    	1217    
560  	390.7607      	25591.1111    	1218    
561  	391.1619      	25564.8623    	1223    
562  	391.5631      	25538.6653    	1224    
563  	391.9644      	25512.5200    	1224    
564  	392.3657      	25486.4261    	1224    
565  	392.7671      	25460.3836    	1226    
566  	393.1685      	25434.3903    	1226    
567  	393.5699      	25408.4501    	1223    
568  	393.9713      	25382.5607    	1225    
569  	394.3728      	25356.7201    	1228    
570  	394.7743      	25330.9321    	1232    
571  	395.1758      	25305.1925    	1236    
572  	395.5774      	25279.5052    	1236    
573  	395.9790      	25253.8662    	1238    
574  	396.3806      	25228.2771    	1240    
575  	396.7823      	25202.7379    	1242    
576  	397.1840      	25177.2504    	1243    
577  	397.5857      	25151.8105    	1245    
578  	397.9875      	25126.4200    	1249    
579  	398.3893      	25101.0769    	1253    
580  	398.7911      	25075.7848    	1256    
581  	399.1930      	25050.5418    	1260    
582  	399.5948      	25025.3476    	1260    
583  	399.9968      	25000.2003    	1263    
584  	400.3987      	24975.1034    	1270    
585  	400.8008      	24950.0531    	1273    
586  	401.2028      	24925.0529    	1276    
587  	401.6048      	24900.0991    	1278    
588  	402.0069      	24875.1951    	1281    
589  	402.4090      	24850.3372    	1285    
590  	402.8112      	24825.5270    	1290    
591  	403.2134      	24800.7644    	1295    
592  	403.6156      	24776.0493    	1299    
593  	404.0179      	24751.3815    	1304    
594  	404.4201      	24726.7609    	1308    
595  	404.8224      	24702.1874    	1312    
596  	405.2248      	24677.6609    	1317    
597  	405.6272      	24653.1792    	1322    
598  	406.0296      	24628.7462    	1329    
599  	406.4320      	24604.3596    	1338    
600  	406.8345      	24580.0176    	1344    
601  	407.2370      	24555.7237    	1353    
602  	407.6396      	24531.4741    	1362    
603  	408.0422      	24507.2706    	1372    
604  	408.4448      	24483.1147    	1382    
605  	408.8474      	24459.0028    	1388    
606  	409.2501      	24434.9365    	1400    
607  	409.6528      	24410.9157    	1412    
608  	410.0555      	24386.9402    	1426    
609  	410.4583      	24363.0100    	1443    
610  	410.8611      	24339.1249    	1457    
611  	411.2639      	24315.2848    	1474    
612  	411.6668      	24291.4896    	1493    
613  	412.0697      	24267.7372    	1513    
614  	412.4727      	24244.0313    	1535    
615  	412.8756      	24220.3699    	1557    
616  	413.2786      	24196.7510    	1583    
617  	413.6816      	24173.1782    	1611    
618  	414.0847      	24149.6476    	1639    
619  	414.4878      	24126.1611    	1669    
620  	414.8909      	24102.7202    	1697    
621  	415.2941      	24079.3213    	1730    
622  	415.6973      	24055.9659    	1771    
623  	416.1005      	24032.6541    	1811    
624  	416.5038      	24009.3857    	1854    
625  	416.9071      	23986.1605    	1900    
626  	417.3104      	23962.9785    	1948    
627  	417.7137      	23939.8395    	2000    
628  	418.1171      	23916.7433    	2056    
629  	418.5205      	23893.6900    	2115    
630  	418.9240      	23870.6776    	2175    
631  	419.3275      	23847.7094    	2242    
632  	419.7310      	23824.7820    	2315    
633  	420.1346      	23801.8986    	2395    
634  	420.5381      	23779.0557    	2481    
635  	420.9417      	23756.2565    	2574    
636  	421.3454      	23733.4976    	2674    
637  	421.7491      	23710.7806    	2781    
638  	422.1528      	23688.1070    	2892    
639  	422.5565      	23665.4733    	3014    
640  	422.9603      	23642.8811    	3142    
641  	423.3641      	23620.3303    	3279    
642  	423.7679      	23597.8208    	3428    
643  	424.1718      	23575.3524    	3581    
644  	424.5757      	23552.9251    	3748    
645  	424.9797      	23530.5371    	3928    
646  	425.3836      	23508.1915    	4119    
647  	425.7876      	23485.8867    	4325    
648  	426.1917      	23463.6208    	4543    
649  	426.5957      	23441.3971    	4770    
650  	426.9998      	23419.2138    	5011    
651  	427.4040      	23397.0691    	5271    
652  	427.8081      	23374.9645    	5550    
653  	428.2123      	23352.9017    	5846    
654  	428.6165      	23330.8772    	6157    
655  	429.0208      	23308.8925    	6482    
656  	429.4251      	23286.9492    	6828    
657  	429.8294      	23265.0439    	7194    
658  	430.2338      	23243.1781    	7581    
659  	430.6382      	23221.3517    	7992    
660  	431.0426      	23199.5646    	8420    
661  	431.4470      	23177.8167    	8872    
662  	431.8515      	23156.1063    	9360    
663  	432.2560      	23134.4366    	9865    
664  	432.6606      	23112.8057    	10391   
665  	433.0652      	23091.2136    	10950   
666  	433.4698      	23069.6586    	11547   
667  	433.8744      	23048.1437    	12183   
668  	434.2791      	23026.6658    	12848   
669  	434.6838      	23005.2278    	13540   
670  	435.0886      	22983.8265    	14264   
671  	435.4933      	22962.4649    	15030   
672  	435.8981      	22941.1398    	15827   
673  	436.3030      	22919.8527    	16647   
674  	436.7079      	22898.6034    	17488   
675  	437.1128      	22877.3920    	18362   
676  	437.5177      	22856.2197    	19288   
677  	437.9226      	22835.0835    	20252   
678  	438.3276      	22813.9847    	21239   
679  	438.7327      	22792.9217    	22261   
680  	439.1378      	22771.8976    	23320   
681  	439.5428      	22750.9106    	24426   
682  	439.9480      	22729.9607    	25583   
683  	440.3531      	22709.0477    	26769   
684  	440.7583      	22688.1701    	27996   
685  	441.1635      	22667.3308    	29244   
686  	441.5688      	22646.5282    	30498   
687  	441.9741      	22625.7607    	31774   
688  	442.3794      	22605.0296    	33068   
689  	442.7848      	22584.3365    	34386   
690  	443.1902      	22563.6781    	35753   
691  	443.5956      	22543.0575    	37154   
692  	444.0010      	22522.4714    	38565   
693  	444.4065      	22501.9214    	40000   
694  	444.8120      	22481.4073    	41464   
695  	445.2176      	22460.9290    	42959   
696  	445.6231      	22440.4865    	44443   
697  	446.0287      	22420.0795    	45911   
698  	446.4344      	22399.7082    	47397   
699  	446.8401      	22379.3723    	48908   
700  	447.2458      	22359.0718    	50408   
701  	447.6515      	22338.8065    	51855   
702  	448.0573      	22318.5764    	53226   
703  	448.4631      	22298.3799    	54514   
704  	448.8689      	22278.2199    	55724   
705  	449.2748      	22258.0934    	56861   
706  	449.6807      	22238.0031    	57944   
707  	450.0866      	22217.9476    	58974   
708  	450.4926      	22197.9252    	59928   
709  	450.8986      	22177.9373    	60811   
710  	451.3046      	22157.9855    	61623   
711  	451.7106      	22138.0665    	62340   
712  	452.1167      	22118.1817    	62978   
713  	452.5228      	22098.3327    	63491   
714  	452.9290      	22078.5163    	63882   
715  	453.3352      	22058.7339    	64154   
716  	453.7414      	22038.9855    	64290   
717  	454.1476      	22019.2709    	64354   
718  	454.5539      	21999.5901    	64297   
719  	454.9602      	21979.9429    	64066   
720  	455.3666      	21960.3293    	63680   
721  	455.7729      	21940.7493    	63174   
722  	456.1794      	21921.2011    	62592   
723  	456.5858      	21901.6878    	61938   
724  	456.9923      	21882.2078    	61212   
725  	457.3988      	21862.7594    	60414   
726  	457.8053      	21843.3456    	59542   
727  	458.2119      	21823.9648    	58599   
728  	458.6185      	21804.6154    	57593   
729  	459.0251      	21785.2989    	56507   
730  	459.4318      	21766.0165    	55338   
731  	459.8385      	21746.7654    	54115   
732  	460.2452      	21727.5483    	52820   
733  	460.6520      	21708.3623    	51455   
734  	461.0588      	21689.2086    	50094   
735  	461.4656      	21670.0873    	48742   
736  	461.8725      	21650.9983    	47372   
737  	462.2793      	21631.9429    	46003   
738  	462.6862      	21612.9181    	44614   
739  	463.0932      	21593.9253    	43238   
740  	463.5002      	21574.9645    	41909   
741  	463.9072      	21556.0341    	40616   
742  	464.3143      	21537.1369    	39351   
743  	464.7213      	21518.2714    	38109   
744  	465.1284      	21499.4375    	36900   
745  	465.5356      	21480.6351    	35723   
746  	465.9428      	21461.8628    	34577   
747  	466.3500      	21443.1232    	33464   
748  	466.7572      	21424.4150    	32385   
749  	467.1645      	21405.7366    	31331   
750  	467.5718      	21387.0907    	30328   
751  	467.9791      	21368.4745    	29383   
752  	468.3865      	21349.8906    	28464   
753  	468.7939      	21331.3363    	27589   
754  	469.2013      	21312.8128    	26754   
755  	469.6088      	21294.3215    	25932   
756  	470.0163      	21275.8594    	25123   
757  	470.4238      	21257.4280    	24345   
758  	470.8314      	21239.0271    	23599   
759  	471.2389      	21220.6580    	22870   
760  	471.6465      	21202.3179    	22168   
761  	472.0542      	21184.0081    	21481   
762  	472.4619      	21165.7286    	20802   
763  	472.8696      	21147.4792    	20142   
764  	473.2773      	21129.2599    	19502   
765  	473.6851      	21111.0706    	18879   
766  	474.0930      	21092.9099    	18276   
767  	474.5008      	21074.7804    	17695   
768  	474.9087      	21056.6806    	17135   
769  	475.3166      	21038.6106    	16594   
770  	475.7245      	21020.5689    	16071   
771  	476.1325      	21002.5581    	15557   
772  	476.5405      	20984.5768    	15049   
773  	476.9485      	20966.6235    	14565   
774  	477.3566      	20948.7010    	14099   
775  	477.7647      	20930.8064    	13649   
776  	478.1728      	20912.9423    	13220   
777  	478.5810      	20895.1061    	12801   
778  	478.9891      	20877.3002    	12397   
779  	479.3974      	20859.5221    	12011   
780  	479.8056      	20841.7728    	11647   
781  	480.2139      	20824.0524    	11296   
782  	480.6222      	20806.3621    	10964   
783  	481.0306      	20788.6992    	10656   
784  	481.4390      	20771.0649    	10356   
785  	481.8474      	20753.4593    	10068   
786  	482.2558      	20735.8821    	9797    
787  	482.6643      	20718.3333    	9539    
788  	483.0728      	20700.8130    	9290    
789  	483.4814      	20683.3209    	9055    
790  	483.8899      	20665.8571    	8833    
791  	484.2985      	20648.4214    	8620    
792  	484.7072      	20631.0139    	8422    
793  	485.1158      	20613.6343    	8235    
794  	485.5245      	20596.2815    	8048    
795  	485.9333      	20578.9578    	7863    
796  	486.3420      	20561.6619    	7685    
797  	486.7508      	20544.3925    	7517    
798  	487.1596      	20527.1522    	7360    
799  	487.5685      	20509.9394    	7206    
800  	487.9774      	20492.7529    	7053    
801  	488.3863      	20475.5952    	6904    
802  	488.7953      	20458.4636    	6755    
803  	489.2042      	20441.3607    	6613    
804  	489.6133      	20424.2838    	6471    
805  	490.0223      	20407.2342    	6335    
806  	490.4314      	20390.2130    	6200    
807  	490.8405      	20373.2176    	6066    
808  	491.2496      	20356.2493    	5937    
809  	491.6588      	20339.3092    	5809    
810  	492.0680      	20322.3947    	5681    
811  	492.4772      	20305.5072    	5553    
812  	492.8865      	20288.6464    	5430    
813  	493.2958      	20271.8123    	5307    
814  	493.7051      	20255.0049    	5184    
815  	494.1145      	20238.2241    	5064    
816  	494.5239      	20221.4698    	4948    
817  	494.9333      	20204.7420    	4833    
818  	495.3428      	20188.0406    	4720    
819  	495.7523      	20171.3655    	4606    
820  	496.1618      	20154.7167    	4498    
821  	496.5713      	20138.0942    	4394    
822  	496.9809      	20121.4966    	4287    
823  	497.3905      	20104.9263    	4185    
824  	497.8002      	20088.3820    	4086    
825  	498.2098      	20071.8637    	3988    
826  	498.6196      	20055.3702    	3893    
827  	499.0293      	20038.9037    	3798    
828  	499.4391      	20022.4617    	3704    
829  	499.8489      	20006.0467    	3612    
830  	500.2587      	19989.6575    	3528    
831  	500.6686      	19973.2925    	3447    
832  	501.0785      	19956.9532    	3368    
833  	501.4884      	19940.6406    	3291    
834  	501.8984      	19924.3522    	3217    
835  	502.3083      	19908.0903    	3147    
836  	502.7184      	19891.8526    	3080    
837  	503.1284      	19875.6402    	3012    
838  	503.5385      	19859.4541    	2948    
839  	503.9486      	19843.2920    	2891    
840  	504.3588      	19827.1550    	2832    
841  	504.7690      	19811.0430    	2774    
842  	505.1792      	19794.9560    	2717    
843  	505.5894      	19778.8950    	2664    
844  	505.9997      	19762.8578    	2612    
845  	506.4100      	19746.8453    	2561    
846  	506.8203      	19730.8576    	2513    
847  	507.2307      	19714.8945    	2466    
848  	507.6411      	19698.9561    	2424    
849  	508.0515      	19683.0422    	2381    
850  	508.4620      	19667.1529    	2339    
851  	508.8725      	19651.2868    	2297    
852  	509.2831      	19635.4463    	2258    
853  	509.6936      	19619.6302    	2222    
854  	510.1042      	19603.8383    	2188    
855  	510.5148      	19588.0707    	2155    
856  	510.9255      	19572.3260    	2122    
857  	511.3362      	19556.6067    	2088    
858  	511.7469      	19540.9114    	2059    
859  	512.1576      	19525.2402    	2033    
860  	512.5684      	19509.5929    	2000    
861  	512.9792      	19493.9683    	1973    
862  	513.3900      	19478.3687    	1947    
863  	513.8009      	19462.7918    	1922    
864  	514.2118      	19447.2397    	1899    
865  	514.6227      	19431.7102    	1877    
866  	515.0337      	19416.2055    	1855    
867  	515.4447      	19400.7232    	1836    
868  	515.8557      	19385.2656    	1819    
869  	516.2668      	19369.8303    	1803    
870  	516.6779      	19354.4173    	1787    
871  	517.0890      	19339.0310    	1771    
872  	517.5002      	19323.6647    	1755    
873  	517.9114      	19308.3227    	1739    
874  	518.3226      	19293.0051    	1723    
875  	518.7338      	19277.7095    	1709    
876  	519.1451      	19262.4381    	1696    
877  	519.5564      	19247.1887    	1683    
878  	519.9678      	19231.9611    	1672    
879  	520.3791      	19216.7599    	1664    
880  	520.7905      	19201.5781    	1650    
881  	521.2020      	19186.4204    	1638    
882  	521.6134      	19171.2865    	1626    
883  	522.0249      	19156.1743    	1614    
884  	522.4365      	19141.0836    	1602    
885  	522.8480      	19126.0167    	1590    
886  	523.2596      	19110.9735    	1582    
887  	523.6712      	19095.9517    	1574    
888  	524.0829      	19080.9513    	1566    
889  	524.4946      	19065.9744    	1556    
890  	524.9063      	19051.0188    	1547    
891  	525.3181      	19036.0867    	1539    
892  	525.7298      	19021.1779    	1532    
893  	526.1416      	19006.2903    	1524    
894  	526.5535      	18991.4237    	1516    
895  	526.9653      	18976.5804    	1507    
896  	527.3773      	18961.7581    	1498    
897  	527.7892      	18946.9589    	1490    
898  	528.2012      	18932.1806    	1483    
899  	528.6132      	18917.4254    	1476    
900  	529.0251      	18902.6931    	1466    
901  	529.4373      	18887.9794    	1460    
902  	529.8493      	18873.2908    	1458    
903  	530.2615      	18858.6207    	1453    
904  	530.6736      	18843.9755    	1448    
905  	531.0858      	18829.3487    	1441    
906  	531.4980      	18814.7467    	1434    
907  	531.9103      	18800.1631    	1428    
908  	532.3225      	18785.6042    	1422    
909  	532.7349      	18771.0636    	1416    
910  	533.1472      	18756.5476    	1410    
911  	533.5596      	18742.0497    	1406    
912  	533.9719      	18727.5764    	1401    
913  	534.3844      	18713.1211    	1396    
914  	534.7969      	18698.6882    	1392    
915  	535.2094      	18684.2774    	1387    
916  	535.6219      	18669.8868    	1384    
917  	536.0344      	18655.5183    	1382    
918  	536.4470      	18641.1698    	1376    
919  	536.8596      	18626.8433    	1371    
920  	537.2723      	18612.5367    	1367    
921  	537.6850      	18598.2500    	1364    
922  	538.0977      	18583.9852    	1362    
923  	538.5104      	18569.7422    	1357    
924  	538.9232      	18555.5190    	1355    
925  	539.3360      	18541.3175    	1353    
926  	539.7488      	18527.1357    	1355    
927  	540.1617      	18512.9734    	1357    
928  	540.5746      	18498.8328    	1357    
929  	540.9875      	18484.7138    	1358    
930  	541.4005      	18470.6142    	1358    
931  	541.8135      	18456.5340    	1360    
932  	542.2266      	18442.4753    	1361    
933  	542.6396      	18428.4380    	1362    
934  	543.0527      	18414.4200    	1365    
935  	543.4658      	18400.4212    	1368    
936  	543.8790      	18386.4437    	1370    
937  	544.2921      	18372.4874    	1372    
938  	544.7054      	18358.5481    	1374    
939  	545.1186      	18344.6321    	1379    
940  	545.5319      	18330.7351    	1385    
941  	545.9452      	18316.8570    	1385    
942  	546.3585      	18303.0000    	1382    
943  	546.7719      	18289.1639    	1376    
944  	547.1853      	18275.3447    	1373    
945  	547.5987      	18261.5483    	1371    
946  	548.0121      	18247.7707    	1371    
947  	548.4257      	18234.0119    	1370    
948  	548.8392      	18220.2738    	1368    
949  	549.2527      	18206.5544    	1364    
950  	549.6663      	18192.8556    	1360    
951  	550.0800      	18179.1754    	1355    
952  	550.4936      	18165.5157    	1348    
953  	550.9072      	18151.8766    	1342    
954  	551.3210      	18138.2539    	1337    
955  	551.7347      	18124.6537    	1333    
956  	552.1484      	18111.0718    	1326    
957  	552.5623      	18097.5083    	1321    
958  	552.9761      	18083.9651    	1316    
959  	553.3900      	18070.4401    	1310    
960  	553.8038      	18056.9353    	1308    
961  	554.2178      	18043.4488    	1300    
962  	554.6317      	18029.9823    	1296    
963  	555.0457      	18016.5340    	1294    
964  	555.4597      	18003.1057    	1294    
965  	555.8738      	17989.6955    	1291    
966  	556.2878      	17976.3052    	1286    
967  	556.7020      	17962.9328    	1283    
968  	557.1161      	17949.5803    	1279    
969  	557.5303      	17936.2458    	1277    
970  	557.9445      	17922.9290    	1275    
971  	558.3587      	17909.6340    	1274    
972  	558.7730      	17896.3547    	1274    
973  	559.1873      	17883.0971    	1273    
974  	559.6016      	17869.8552    	1273    
975  	560.0160      	17856.6329    	1273    
976  	560.4304      	17843.4302    	1268    
977  	560.8448      	17830.2451    	1267    
978  	561.2592      	17817.0794    	1266    
979  	561.6737      	17803.9312    	1266    
980  	562.0882      	17790.8024    	1267    
981  	562.5027      	17777.6910    	1262    
982  	562.9174      	17764.5970    	1261    
983  	563.3319      	17751.5242    	1261    
984  	563.7466      	17738.4667    	1260    
985  	564.1613      	17725.4285    	1260    
986  	564.5759      	17712.4095    	1258    
987  	564.9907      	17699.4076    	1256    
988  	565.4054      	17686.4248    	1254    
989  	565.8202      	17673.4591    	1254    
990  	566.2350      	17660.5105    	1252    
991  	566.6499      	17647.5809    	1251    
992  	567.0648      	17634.6702    	1251    
993  	567.4797      	17621.7765    	1250    
994  	567.8946      	17608.9016    	1250    
995  	568.3096      	17596.0436    	1250    
996  	568.7246      	17583.2025    	1247    
997  	569.1396      	17570.3802    	1247    
998  	569.5547      	17557.5765    	1250    
999  	569.9698      	17544.7896    	1248    
1000 	570.3849      	17532.0213    	1246    
1001 	570.8000      	17519.2697    	1241    
1002 	571.2153      	17506.5348    	1240    
1003 	571.6305      	17493.8183    	1239    
1004 	572.0457      	17481.1204    	1238    
1005 	572.4610      	17468.4389    	1239    
1006 	572.8763      	17455.7741    	1238    
1007 	573.2917      	17443.1275    	1240    
1008 	573.7070      	17430.4993    	1242    
1009 	574.1224      	17417.8875    	1242    
1010 	574.5379      	17405.2921    	1241    
1011 	574.9534      	17392.7148    	1240    
1012 	575.3688      	17380.1558    	1239    
1013 	575.7844      	17367.6130    	1240    
1014 	576.2000      	17355.0865    	1240    
1015 	576.6155      	17342.5781    	1241    
1016 	577.0311      	17330.0876    	1240    
1017 	577.4468      	17317.6133    	1241    
1018 	577.8625      	17305.1551    	1244    
1019 	578.2782      	17292.7149    	1240    
1020 	578.6939      	17280.2925    	1239    
1021 	579.1097      	17267.8861    	1238    
1022 	579.5255      	17255.4957    	1237    
1023 	579.9413      	17243.1231    	1237    
1024 	580.3572      	17230.7682    	1235    
1025 	580.7731      	17218.4292    	1233    
1026 	581.1890      	17206.1060    	1232    
1027 	581.6050      	17193.8005    	1234    
1028 	582.0210      	17181.5107    	1236    
1029 	582.4370      	17169.2386    	1237    
1030 	582.8530      	17156.9839    	1237    
1031 	583.2691      	17144.7449    	1236    
1032 	583.6852      	17132.5216    	1237    
1033 	584.1014      	17120.3157    	1237    
1034 	584.5175      	17108.1271    	1235    
1035 	584.9337      	17095.9542    	1234    
1036 	585.3500      	17083.7967    	1237    
1037 	585.7662      	17071.6566    	1238    
1038 	586.1826      	17059.5319    	1239    
1039 	586.5989      	17047.4244    	1237    
1040 	587.0152      	17035.3341    	1238    
1041 	587.4316      	17023.2591    	1240    
1042 	587.8480      	17011.1995    	1241    
1043 	588.2645      	16999.1570    	1240    
1044 	588.6810      	16987.1297    	1239    
1045 	589.0975      	16975.1195    	1240    
1046 	589.5140      	16963.1262    	1240    
1047 	589.9305      	16951.1481    	1240    
1048 	590.3472      	16939.1852    	1239    
1049 	590.7638      	16927.2391    	1238    
1050 	591.1804      	16915.3099    	1239    
1051 	591.5972      	16903.3940    	1239    
1052 	592.0139      	16891.4966    	1239    
1053 	592.4306      	16879.6142    	1239    
1054 	592.8474      	16867.7467    	1238    
1055 	593.2642      	16855.8960    	1237    
1056 	593.6810      	16844.0619    	1237    
1057 	594.0980      	16832.2409    	1231    
1058 	594.5148      	16820.4382    	1229    
1059 	594.9318      	16808.6504    	1227    
1060 	595.3488      	16796.8773    	1226    
1061 	595.7657      	16785.1207    	1229    
1062 	596.1827      	16773.3806    	1228    
1063 	596.5999      	16761.6535    	1228    
1064 	597.0169      	16749.9444    	1226    
1065 	597.4340      	16738.2500    	1224    
1066 	597.8512      	16726.5702    	1224    
1067 	598.2684      	16714.9067    	1223    
1068 	598.6855      	16703.2594    	1221    
1069 	599.1028      	16691.6250    	1219    
1070 	599.5201      	16680.0084    	1216    
1071 	599.9374      	16668.4064    	1215    
1072 	600.3547      	16656.8187    	1214    
1073 	600.7721      	16645.2472    	1214    
1074 	601.1895      	16633.6917    	1213    
1075 	601.6069      	16622.1505    	1213    
1076 	602.0244      	16610.6237    	1217    
1077 	602.4418      	16599.1129    	1216    
1078 	602.8594      	16587.6163    	1216    
1079 	603.2769      	16576.1356    	1214    
1080 	603.6945      	16564.6709    	1214    
1081 	604.1121      	16553.2203    	1213    
1082 	604.5297      	16541.7838    	1208    
1083 	604.9474      	16530.3631    	1208    
1084 	605.3651      	16518.9566    	1207    
1085 	605.7828      	16507.5657    	1209    
1086 	606.2006      	16496.1906    	1212    
1087 	606.6183      	16484.8295    	1213    
1088 	607.0362      	16473.4823    	1214    
1089 	607.4540      	16462.1508    	1214    
1090 	607.8719      	16450.8348    	1214    
1091 	608.2898      	16439.5327    	1215    
1092 	608.7078      	16428.2445    	1214    
1093 	609.1257      	16416.9718    	1214    
1094 	609.5438      	16405.7130    	1218    
1095 	609.9618      	16394.4695    	1223    
1096 	610.3798      	16383.2415    	1230    
1097 	610.7979      	16372.0271    	1231    
1098 	611.2161      	16360.8265    	1234    
1099 	611.6342      	16349.6412    	1241    
1100 	612.0524      	16338.4712    	1245    
1101 	612.4706      	16327.3148    	1246    
1102 	612.8889      	16316.1720    	1244    
1103 	613.3071      	16305.0445    	1241    
1104 	613.7254      	16293.9320    	1241    
1105 	614.1437      	16282.8331    	1242    
1106 	614.5621      	16271.7477    	1243    
1107 	614.9805      	16260.6774    	1244    
1108 	615.3989      	16249.6221    	1245    
1109 	615.8174      	16238.5803    	1246    
1110 	616.2359      	16227.5518    	1246    
1111 	616.6544      	16216.5383    	1247    
1112 	617.0729      	16205.5397    	1246    
1113 	617.4915      	16194.5545    	1245    
1114 	617.9102      	16183.5825    	1245    
1115 	618.3288      	16172.6254    	1240    
1116 	618.7474      	16161.6831    	1235    
1117 	619.1661      	16150.7540    	1228    
1118 	619.5849      	16139.8381    	1223    
1119 	620.0037      	16128.9370    	1220    
1120 	620.4224      	16118.0506    	1213    
1121 	620.8412      	16107.1772    	1211    
1122 	621.2601      	16096.3170    	1209    
1123 	621.6790      	16085.4713    	1212    
1124 	622.0979      	16074.6403    	1214    
1125 	622.5168      	16063.8223    	1213    
1126 	622.9358      	16053.0189    	1211    
1127 	623.3548      	16042.2283    	1209    
1128 	623.7739      	16031.4508    	1208    
1129 	624.1929      	16020.6877    	1207    
1130 	624.6120      	16009.9390    	1205    
1131 	625.0311      	15999.2032    	1206    
1132 	625.4503      	15988.4817    	1206    
1133 	625.8694      	15977.7731    	1207    
1134 	626.2887      	15967.0773    	1208    
1135 	626.7079      	15956.3957    	1206    
1136 	627.1272      	15945.7285    	1206    
1137 	627.5465      	15935.0739    	1205    
1138 	627.9658      	15924.4336    	1205    
1139 	628.3852      	15913.8059    	1207    
1140 	628.8046      	15903.1909    	1206    
1141 	629.2240      	15892.5915    	1206    
1142 	629.6435      	15882.0032    	1206    
1143 	630.0630      	15871.4290    	1207    
1144 	630.4825      	15860.8689    	1207    
1145 	630.9020      	15850.3213    	1205    
1146 	631.3216      	15839.7877    	1203    
1147 	631.7412      	15829.2665    	1202    
1148 	632.1608      	15818.7593    	1202    
1149 	632.5805      	15808.2646    	1200    
1150 	633.0002      	15797.7837    	1199    
1151 	633.4199      	15787.3153    	1199    
1152 	633.8397      	15776.8606    	1198    
1153 	634.2595      	15766.4184    	1198    
1154 	634.6793      	15755.9884    	1198    
1155 	635.0991      	15745.5737    	1197    
1156 	635.5190      	15735.1697    	1198    
1157 	635.9389      	15724.7810    	1202    
1158 	636.3589      	15714.4030    	1202    
1159 	636.7788      	15704.0402    	1201    
1160 	637.1989      	15693.6880    	1197    
1161 	637.6188      	15683.3510    	1197    
1162 	638.0389      	15673.0246    	1195    
1163 	638.4590      	15662.7133    	1194    
1164 	638.8791      	15652.4140    	1194    
1165 	639.2993      	15642.1268    	1192    
1166 	639.7194      	15631.8531    	1194    
1167 	640.1396      	15621.5914    	1196    
1168 	640.5599      	15611.3431    	1197    
1169 	640.9802      	15601.1068    	1197    
1170 	641.4005      	15590.8839    	1197    
1171 	641.8208      	15580.6730    	1197    
1172 	642.2411      	15570.4754    	1196    
1173 	642.6616      	15560.2896    	1195    
1174 	643.0820      	15550.1172    	1194    
1175 	643.5024      	15539.9581    	1193    
1176 	643.9229      	15529.8107    	1194    
1177 	644.3434      	15519.6751    	1197    
1178 	644.7639      	15509.5528    	1194    
1179 	645.1845      	15499.4422    	1194    
1180 	645.6051      	15489.3447    	1195    
1181 	646.0257      	15479.2604    	1195    
1182 	646.4464      	15469.1864    	1194    
1183 	646.8671      	15459.1268    	1192    
1184 	647.2878      	15449.0789    	1189    
1185 	647.7086      	15439.0426    	1187    
1186 	648.1293      	15429.0193    	1187    
1187 	648.5501      	15419.0090    	1187    
1188 	648.9709      	15409.0103    	1187    
1189 	649.3918      	15399.0230    	1188    
1190 	649.8127      	15389.0488    	1188    
1191 	650.2336      	15379.0874    	1189    
1192 	650.6546      	15369.1374    	1191    
1193 	651.0756      	15359.1989    	1191    
1194 	651.4966      	15349.2733    	1192    
1195 	651.9177      	15339.3604    	1194    
1196 	652.3387      	15329.4589    	1194    
1197 	652.7599      	15319.5688    	1193    
1198 	653.1810      	15309.6914    	1189    
1199 	653.6022      	15299.8267    	1189    
1200 	654.0234      	15289.9734    	1187    
1201 	654.4446      	15280.1327    	1187    
1202 	654.8658      	15270.3032    	1188    
1203 	655.2872      	15260.4849    	1189    
1204 	655.7084      	15250.6807    	1192    
1205 	656.1298      	15240.8863    	1193    
1206 	656.5512      	15231.1044    	1194    
1207 	656.9726      	15221.3351    	1194    
1208 	657.3940      	15211.5768    	1193    
1209 	657.8155      	15201.8311    	1193    
1210 	658.2370      	15192.0965    	1192    
1211 	658.6585      	15182.3743    	1192    
1212 	659.0801      	15172.6631    	1192    
1213 	659.5016      	15162.9644    	1190    
1214 	659.9233      	15153.2766    	1191    
1215 	660.3449      	15143.6013    	1192    
1216 	660.7666      	15133.9368    	1188    
1217 	661.1883      	15124.2847    	1188    
1218 	661.6100      	15114.6435    	1188    
1219 	662.0318      	15105.0146    	1187    
1220 	662.4536      	15095.3966    	1191    
1221 	662.8754      	15085.7908    	1192    
1222 	663.2973      	15076.1958    	1193    
1223 	663.7192      	15066.6130    	1191    
1224 	664.1411      	15057.0410    	1190    
1225 	664.5630      	15047.4812    	1190    
1226 	664.9850      	15037.9321    	1191    
1227 	665.4070      	15028.3952    	1191    
1228 	665.8290      	15018.8703    	1190    
1229 	666.2511      	15009.3561    	1190    
1230 	666.6732      	14999.8526    	1190    
1231 	667.0953      	14990.3611    	1189    
1232 	667.5175      	14980.8803    	1189    
1233 	667.9397      	14971.4114    	1188    
1234 	668.3619      	14961.9545    	1188    
1235 	668.7841      	14952.5082    	1192    
1236 	669.2064      	14943.0724    	1192    
1237 	669.6287      	14933.6485    	1192    
1238 	670.0510      	14924.2365    	1192    
1239 	670.4734      	14914.8351    	1192    
1240 	670.8958      	14905.4440    	1191    
1241 	671.3182      	14896.0649    	1186    
1242 	671.7407      	14886.6975    	1186    
1243 	672.1631      	14877.3405    	1185    
1244 	672.5857      	14867.9939    	1187    
1245 	673.0082      	14858.6591    	1190    
1246 	673.4308      	14849.3360    	1191    
1247 	673.8534      	14840.0232    	1192    
1248 	674.2760      	14830.7221    	1193    
1249 	674.6987      	14821.4313    	1194    
1250 	675.1213      	14812.1522    	1195    
1251 	675.5441      	14802.8833    	1194    
1252 	675.9669      	14793.6247    	1194    
1253 	676.3896      	14784.3790    	1194    
1254 	676.8124      	14775.1422    	1195    
1255 	677.2352      	14765.9182    	1195    
1256 	677.6581      	14756.7031    	1192    
1257 	678.0810      	14747.5008    	1193    
1258 	678.5040      	14738.3073    	1197    
1259 	678.9269      	14729.1267    	1198    
1260 	679.3499      	14719.9547    	1200    
1261 	679.7729      	14710.7956    	1199    
1262 	680.1960      	14701.6452    	1198    
1263 	680.6190      	14692.5074    	1198    
1264 	681.0421      	14683.3798    	1197    
1265 	681.4653      	14674.2621    	1197    
1266 	681.8884      	14665.1558    	1195    
1267 	682.3116      	14656.0594    	1195    
1268 	682.7349      	14646.9743    	1194    
1269 	683.1581      	14637.9005    	1194    
1270 	683.5814      	14628.8366    	1195    
1271 	684.0047      	14619.7826    	1194    
1272 	684.4280      	14610.7398    	1195    
1273 	684.8514      	14601.7069    	1198    
1274 	685.2748      	14592.6851    	1197    
1275 	685.6982      	14583.6745    	1196    
1276 	686.1217      	14574.6738    	1195    
1277 	686.5452      	14565.6828    	1194    
1278 	686.9688      	14556.7029    	1192    
1279 	687.3923      	14547.7341    	1188    
1280 	687.8159      	14538.7750    	1188    
1281 	688.2394      	14529.8270    	1188    
1282 	688.6631      	14520.8887    	1190    
1283 	689.0868      	14511.9601    	1192    
1284 	689.5104      	14503.0437    	1192    
1285 	689.9342      	14494.1357    	1192    
1286 	690.3580      	14485.2387    	1191    
1287 	690.7817      	14476.3526    	1191    
1288 	691.2056      	14467.4761    	1190    
1289 	691.6294      	14458.6105    	1189    
1290 	692.0533      	14449.7544    	1189    
1291 	692.4772      	14440.9092    	1190    
1292 	692.9011      	14432.0736    	1190    
1293 	693.3251      	14423.2488    	1191    
1294 	693.7491      	14414.4334    	1189    
1295 	694.1731      	14405.6289    	1189    
1296 	694.5972      	14396.8338    	1188    
1297 	695.0212      	14388.0495    	1189    
1298 	695.4453      	14379.2759    	1192    
1299 	695.8695      	14370.5104    	1192    
1300 	696.2936      	14361.7569    	1192    
1301 	696.7178      	14353.0128    	1191    
1302 	697.1421      	14344.2781    	1192    
1303 	697.5663      	14335.5540    	1193    
1304 	697.9906      	14326.8405    	1191    
1305 	698.4149      	14318.1363    	1190    
1306 	698.8393      	14309.4415    	1190    
1307 	699.2637      	14300.7572    	1190    
1308 	699.6880      	14292.0835    	1190    
1309 	700.1125      	14283.4190    	1189    
1310 	700.5370      	14274.7638    	1189    
1311 	700.9615      	14266.1190    	1188    
1312 	701.3860      	14257.4847    	1187    
1313 	701.8105      	14248.8597    	1187    
1314 	702.2351      	14240.2450    	1186    
1315 	702.6597      	14231.6396    	1188    
1316 	703.0844      	14223.0433    	1192    
1317 	703.5090      	14214.4586    	1194    
1318 	703.9338      	14205.8818    	1194    
1319 	704.3585      	14197.3165    	1190    
1320 	704.7833      	14188.7592    	1190    
1321 	705.2080      	14180.2133    	1189    
1322 	705.6329      	14171.6753    	1188    
1323 	706.0577      	14163.1489    	1187    
1324 	706.4826      	14154.6302    	1186    
1325 	706.9075      	14146.1230    	1187    
1326 	707.3324      	14137.6247    	1189    
1327 	707.7574      	14129.1355    	1191    
1328 	708.1824      	14120.6565    	1191    
1329 	708.6074      	14112.1864    	1192    
1330 	709.0325      	14103.7264    	1193    
1331 	709.4575      	14095.2766    	1194    
1332 	709.8826      	14086.8357    	1193    
1333 	710.3078      	14078.4038    	1194    
1334 	710.7330      	14069.9818    	1192    
1335 	711.1581      	14061.5700    	1192    
1336 	711.5834      	14053.1670    	1193    
1337 	712.0087      	14044.7729    	1190    
1338 	712.4340      	14036.3887    	1191    
1339 	712.8593      	14028.0146    	1192    
1340 	713.2846      	14019.6492    	1193    
1341 	713.7100      	14011.2939    	1194    
1342 	714.1354      	14002.9473    	1191    
1343 	714.5609      	13994.6094    	1189    
1344 	714.9863      	13986.2826    	1188    
1345 	715.4118      	13977.9634    	1188    
1346 	715.8373      	13969.6540    	1188    
1347 	716.2629      	13961.3546    	1188    
1348 	716.6885      	13953.0637    	1188    
1349 	717.1141      	13944.7828    	1188    
1350 	717.5397      	13936.5116    	1189    
1351 	717.9654      	13928.2479    	1190    
1352 	718.3911      	13919.9952    	1190    
1353 	718.8168      	13911.7511    	1191    
1354 	719.2426      	13903.5155    	1194    
1355 	719.6683      	13895.2897    	1194    
1356 	720.0942      	13887.0724    	1193    
1357 	720.5200      	13878.8649    	1190    
1358 	720.9459      	13870.6670    	1190    
1359 	721.3718      	13862.4777    	1188    
1360 	721.7977      	13854.2968    	1188    
1361 	722.2237      	13846.1256    	1188    
1362 	722.6497      	13837.9641    	1188    
1363 	723.0757      	13829.8109    	1192    
1364 	723.5018      	13821.6663    	1194    
1365 	723.9278      	13813.5323    	1195    
1366 	724.3539      	13805.4056    	1196    
1367 	724.7801      	13797.2885    	1196    
1368 	725.2062      	13789.1809    	1196    
1369 	725.6324      	13781.0817    	1197    
1370 	726.0587      	13772.9919    	1198    
1371 	726.4849      	13764.9106    	1198    
1372 	726.9112      	13756.8386    	1199    
1373 	727.3375      	13748.7750    	1200    
1374 	727.7639      	13740.7209    	1201    
1375 	728.1902      	13732.6750    	1199    
1376 	728.6166      	13724.6385    	1199    
1377 	729.0430      	13716.6115    	1199    
1378 	729.4695      	13708.5915    	1199    
1379 	729.8960      	13700.5821    	1201    
1380 	730.3225      	13692.5808    	1202    
1381 	730.7491      	13684.5878    	1202    
1382 	731.1757      	13676.6041    	1200    
1383 	731.6022      	13668.6297    	1200    
1384 	732.0289      	13660.6634    	1200    
1385 	732.4556      	13652.7053    	1200    
1386 	732.8823      	13644.7565    	1201    
1387 	733.3090      	13636.8169    	1200    
1388 	733.7357      	13628.8854    	1200    
1389 	734.1625      	13620.9631    	1200    
1390 	734.5893      	13613.0489    	1198    
1391 	735.0161      	13605.1439    	1196    
1392 	735.4430      	13597.2470    	1195    
1393 	735.8699      	13589.3592    	1194    
1394 	736.2968      	13581.4794    	1196    
1395 	736.7238      	13573.6087    	1196    
1396 	737.1508      	13565.7461    	1196    
1397 	737.5778      	13557.8925    	1196    
1398 	738.0048      	13550.0470    	1197    
1399 	738.4319      	13542.2105    	1197    
1400 	738.8590      	13534.3819    	1193    
1401 	739.2861      	13526.5624    	1192    
1402 	739.7133      	13518.7519    	1190    
1403 	740.1404      	13510.9493    	1191    
1404 	740.5677      	13503.1546    	1192    
1405 	740.9949      	13495.3689    	1193    
1406 	741.4222      	13487.5922    	1193    
1407 	741.8495      	13479.8233    	1193    
1408 	742.2769      	13472.0622    	1194    
1409 	742.7042      	13464.3101    	1194    
1410 	743.1316      	13456.5669    	1194    
1411 	743.5590      	13448.8315    	1194    
1412 	743.9865      	13441.1050    	1195    
1413 	744.4139      	13433.3863    	1196    
1414 	744.8414      	13425.6764    	1195    
1415 	745.2690      	13417.9742    	1191    
1416 	745.6965      	13410.2809    	1190    
1417 	746.1241      	13402.5953    	1194    
1418 	746.5518      	13394.9186    	1195    
1419 	746.9794      	13387.2495    	1196    
1420 	747.4071      	13379.5892    	1195    
1421 	747.8348      	13371.9365    	1194    
1422 	748.2626      	13364.2926    	1197    
1423 	748.6903      	13356.6575    	1197    
1424 	749.1181      	13349.0300    	1196    
1425 	749.5460      	13341.4101    	1195    
1426 	749.9738      	13333.7988    	1193    
1427 	750.4017      	13326.1963    	1192    
1428 	750.8296      	13318.6014    	1191    
1429 	751.2575      	13311.0151    	1190    
1430 	751.6855      	13303.4363    	1189    
1431 	752.1135      	13295.8651    	1190    
1432 	752.5415      	13288.3036    	1193    
1433 	752.9696      	13280.7486    	1191    
1434 	753.3977      	13273.2021    	1190    
1435 	753.8258      	13265.6642    	1189    
1436 	754.2540      	13258.1338    	1189    
1437 	754.6821      	13250.6119    	1188    
1438 	755.1103      	13243.0986    	1183    
1439 	755.5386      	13235.5916    	1182    
1440 	755.9668      	13228.0942    	1182    
1441 	756.3951      	13220.6042    	1184    
1442 	756.8234      	13213.1217    	1186    
1443 	757.2518      	13205.6476    	1185    
1444 	757.6801      	13198.1819    	1185    
1445 	758.1085      	13190.7237    	1185    
1446 	758.5370      	13183.2728    	1185    
1447 	758.9655      	13175.8303    	1184    
1448 	759.3939      	13168.3962    	1184    
1449 	759.8224      	13160.9694    	1185    
1450 	760.2510      	13153.5510    	1185    
1451 	760.6796      	13146.1399    	1186    
1452 	761.1082      	13138.7372    	1187    
1453 	761.5368      	13131.3417    	1185    
1454 	761.9655      	13123.9546    	1186    
1455 	762.3942      	13116.5747    	1189    
1456 	762.8229      	13109.2031    	1189    
1457 	763.2516      	13101.8387    	1189    
1458 	763.6804      	13094.4826    	1189    
1459 	764.1093      	13087.1338    	1189    
1460 	764.5381      	13079.7931    	1187    
1461 	764.9669      	13072.4607    	1187    
1462 	765.3958      	13065.1355    	1186    
1463 	765.8248      	13057.8174    	1184    
1464 	766.2537      	13050.5076    	1184    
1465 	766.6827      	13043.2059    	1184    
1466 	767.1117      	13035.9113    	1184    
1467 	767.5408      	13028.6238    	1185    
1468 	767.9698      	13021.3445    	1185    
1469 	768.3989      	13014.0734    	1185    
1470 	768.8281      	13006.8093    	1184    
1471 	769.2572      	12999.5533    	1182    
1472 	769.6864      	12992.3044    	1182    
1473 	770.1156      	12985.0635    	1180    
1474 	770.5449      	12977.8297    	1180    
1475 	770.9741      	12970.6040    	1182    
1476 	771.4034      	12963.3863    	1179    
1477 	771.8327      	12956.1756    	1180    
1478 	772.2621      	12948.9719    	1181    
1479 	772.6915      	12941.7761    	1181    
1480 	773.1209      	12934.5874    	1180    
1481 	773.5504      	12927.4067    	1180    
1482 	773.9798      	12920.2339    	1181    
1483 	774.4093      	12913.0680    	1180    
1484 	774.8388      	12905.9101    	1181    
1485 	775.2684      	12898.7591    	1181    
1486 	775.6980      	12891.6151    	1181    
1487 	776.1276      	12884.4799    	1182    
1488 	776.5573      	12877.3506    	1182    
1489 	776.9869      	12870.2302    	1182    
1490 	777.4166      	12863.1157    	1183    
1491 	777.8463      	12856.0100    	1183    
1492 	778.2761      	12848.9112    	1183    
1493 	778.7059      	12841.8192    	1181    
1494 	779.1357      	12834.7350    	1181    
1495 	779.5656      	12827.6576    	1183    
1496 	779.9954      	12820.5881    	1179    
1497 	780.4253      	12813.5263    	1178    
1498 	780.8552      	12806.4713    	1177    
1499 	781.2852      	12799.4230    	1177    
1500 	781.7152      	12792.3825    	1178    
1501 	782.1452      	12785.3498    	1177    
1502 	782.5753      	12778.3238    	1176    
1503 	783.0053      	12771.3055    	1175    
1504 	783.4354      	12764.2939    	1175    
1505 	783.8655      	12757.2900    	1174    
1506 	784.2957      	12750.2928    	1174    
1507 	784.7259      	12743.3033    	1172    
1508 	785.1561      	12736.3204    	1171    
1509 	785.5864      	12729.3452    	1171    
1510 	786.0167      	12722.3766    	1173    
1511 	786.4470      	12715.4157    	1173    
1512 	786.8773      	12708.4623    	1174    
1513 	787.3076      	12701.5156    	1178    
1514 	787.7380      	12694.5755    	1179    
1515 	788.1685      	12687.6430    	1179    
1516 	788.5989      	12680.7180    	1176    
1517 	789.0294      	12673.7996    	1176    
1518 	789.4598      	12666.8888    	1175    
1519 	789.8904      	12659.9845    	1174    
1520 	790.3210      	12653.0868    	1174    
1521 	790.7515      	12646.1975    	1173    
1522 	791.1822      	12639.3138    	1175    
1523 	791.6128      	12632.4386    	1177    
1524 	792.0435      	12625.5699    	1177    
1525 	792.4742      	12618.7076    	1178    
1526 	792.9049      	12611.8528    	1178    
1527 	793.3357      	12605.0045    	1178    
1528 	793.7665      	12598.1636    	1179    
1529 	794.1973      	12591.3302    	1178    
1530 	794.6281      	12584.5032    	1178    
1531 	795.0590      	12577.6826    	1177    
1532 	795.4899      	12570.8694    	1178    
1533 	795.9208      	12564.0636    	1180    
1534 	796.3518      	12557.2642    	1178    
1535 	796.7828      	12550.4721    	1178    
1536 	797.2138      	12543.6864    	1179    
1537 	797.6448      	12536.9081    	1179    
1538 	798.0759      	12530.1361    	1180    
1539 	798.5070      	12523.3714    	1178    
1540 	798.9382      	12516.6131    	1177    
1541 	799.3693      	12509.8621    	1176    
1542 	799.8005      	12503.1174    	1175    
1543 	800.2318      	12496.3799    	1175    
1544 	800.6630      	12489.6498    	1177    
1545 	801.0942      	12482.9259    	1178    
1546 	801.5256      	12476.2083    	1178    
1547 	801.9568      	12469.4989    	1179    
1548 	802.3882      	12462.7947    	1180    
1549 	802.8196      	12456.0978    	1179    
1550 	803.2510      	12449.4081    	1180    
1551 	803.6825      	12442.7247    	1179    
1552 	804.1140      	12436.0484    	1179    
1553 	804.5455      	12429.3783    	1179    
1554 	804.9770      	12422.7153    	1175    
1555 	805.4086      	12416.0586    	1175    
1556 	805.8401      	12409.4090    	1175    
1557 	806.2717      	12402.7665    	1176    
1558 	806.7034      	12396.1302    	1175    
1559 	807.1351      	12389.5000    	1175    
1560 	807.5668      	12382.8770    	1178    
1561 	807.9985      	12376.2610    	1179    
1562 	808.4302      	12369.6511    	1179    
1563 	808.8621      	12363.0474    	1180    
1564 	809.2938      	12356.4517    	1180    
1565 	809.7257      	12349.8611    	1178    
1566 	810.1575      	12343.2784    	1177    
1567 	810.5895      	12336.7010    	1177    
1568 	811.0214      	12330.1314    	1177    
1569 	811.4534      	12323.5670    	1178    
1570 	811.8853      	12317.0106    	1179    
1571 	812.3173      	12310.4601    	1181    
1572 	812.7494      	12303.9157    	1182    
1573 	813.1815      	12297.3783    	1182    
1574 	813.6135      	12290.8478    	1180    
1575 	814.0457      	12284.3233    	1181    
1576 	814.4778      	12277.8048    	1183    
1577 	814.9100      	12271.2932    	1183    
1578 	815.3422      	12264.7886    	1183    
1579 	815.7745      	12258.2899    	1182    
1580 	816.2067      	12251.7981    	1182    
1581 	816.6390      	12245.3122    	1183    
1582 	817.0714      	12238.8332    	1184    
1583 	817.5037      	12232.3602    	1186    
1584 	817.9361      	12225.8940    	1186    
1585 	818.3685      	12219.4346    	1185    
1586 	818.8009      	12212.9812    	1184    
1587 	819.2334      	12206.5336    	1184    
1588 	819.6659      	12200.0928    	1183    
1589 	820.0984      	12193.6589    	1182    
1590 	820.5309      	12187.2308    	1182    
1591 	820.9636      	12180.8086    	1184    
1592 	821.3961      	12174.3940    	1184    
1593 	821.8288      	12167.9844    	1184    
1594 	822.2614      	12161.5825    	1185    
1595 	822.6942      	12155.1855    	1185    
1596 	823.1268      	12148.7961    	1184    
1597 	823.5596      	12142.4116    	1181    
1598 	823.9924      	12136.0347    	1181    
1599 	824.4252      	12129.6636    	1180    
1600 	824.8580      	12123.2983    	1182    
1601 	825.2909      	12116.9397    	1182    
1602 	825.7238      	12110.5878    	1182    
1603 	826.1567      	12104.2416    	1182    
1604 	826.5897      	12097.9011    	1182    
1605 	827.0226      	12091.5682    	1183    
1606 	827.4556      	12085.2402    	1183    
1607 	827.8887      	12078.9187    	1182    
1608 	828.3217      	12072.6039    	1182    
1609 	828.7548      	12066.2957    	1182    
1610 	829.1879      	12059.9923    	1181    
1611 	829.6210      	12053.6963    	1181    
1612 	830.0542      	12047.4061    	1178    
1613 	830.4874      	12041.1215    	1178    
1614 	830.9207      	12034.8435    	1181    
1615 	831.3539      	12028.5720    	1182    
1616 	831.7872      	12022.3061    	1182    
1617 	832.2205      	12016.0459    	1180    
1618 	832.6539      	12009.7923    	1179    
1619 	833.0872      	12003.5451    	1178    
1620 	833.5206      	11997.3035    	1177    
1621 	833.9540      	11991.0685    	1176    
1622 	834.3875      	11984.8390    	1175    
1623 	834.8210      	11978.6160    	1175    
1624 	835.2545      	11972.3995    	1175    
1625 	835.6880      	11966.1885    	1175    
1626 	836.1216      	11959.9831    	1175    
1627 	836.5552      	11953.7841    	1177    
1628 	836.9888      	11947.5916    	1179    
1629 	837.4224      	11941.4046    	1180    
1630 	837.8561      	11935.2231    	1180    
1631 	838.2899      	11929.0481    	1180    
1632 	838.7236      	11922.8794    	1180    
1633 	839.1573      	11916.7162    	1180    
1634 	839.5911      	11910.5594    	1180    
1635 	840.0250      	11904.4081    	1177    
1636 	840.4588      	11898.2632    	1177    
1637 	840.8926      	11892.1246    	1178    
1638 	841.3266      	11885.9905    	1180    
1639 	841.7605      	11879.8637    	1181    
1640 	842.1945      	11873.7423    	1182    
1641 	842.6285      	11867.6264    	1185    
1642 	843.0624      	11861.5177    	1185    
1643 	843.4965      	11855.4134    	1185    
1644 	843.9306      	11849.3155    	1184    
1645 	844.3647      	11843.2239    	1183    
1646 	844.7988      	11837.1376    	1183    
1647 	845.2330      	11831.0576    	1182    
1648 	845.6672      	11824.9830    	1180    
1649 	846.1014      	11818.9147    	1179    
1650 	846.5356      	11812.8525    	1180    
1651 	846.9698      	11806.7957    	1181    
1652 	847.4042      	11800.7443    	1180    
1653 	847.8385      	11794.6991    	1181    
1654 	848.2728      	11788.6601    	1183    
1655 	848.7072      	11782.6264    	1180    
1656 	849.1416      	11776.5988    	1179    
1657 	849.5760      	11770.5766    	1179    
1658 	850.0106      	11764.5597    	1180    
1659 	850.4450      	11758.5498    	1181    
1660 	850.8795      	11752.5452    	1181    
1661 	851.3141      	11746.5459    	1180    
1662 	851.7487      	11740.5527    	1180    
1663 	852.1833      	11734.5648    	1181    
1664 	852.6179      	11728.5830    	1182    
1665 	853.0526      	11722.6072    	1183    
1666 	853.4872      	11716.6367    	1182    
1667 	853.9220      	11710.6715    	1181    
1668 	854.3567      	11704.7132    	1182    
1669 	854.7915      	11698.7592    	1183    
1670 	855.2263      	11692.8122    	1183    
1671 	855.6611      	11686.8695    	1184    
1672 	856.0959      	11680.9337    	1186    
1673 	856.5308      	11675.0031    	1187    
1674 	856.9658      	11669.0777    	1188    
1675 	857.4007      	11663.1583    	1187    
1676 	857.8357      	11657.2440    	1188    
1677 	858.2707      	11651.3358    	1188    
1678 	858.7057      	11645.4335    	1188    
1679 	859.1407      	11639.5364    	1187    
1680 	859.5758      	11633.6453    	1186    
1681 	860.0109      	11627.7593    	1188    
1682 	860.4460      	11621.8792    	1190    
1683 	860.8812      	11616.0043    	1191    
1684 	861.3164      	11610.1353    	1191    
1685 	861.7516      	11604.2714    	1191    
1686 	862.1869      	11598.4134    	1193    
1687 	862.6221      	11592.5614    	1195    
1688 	863.0574      	11586.7144    	1196    
1689 	863.4928      	11580.8725    	1197    
1690 	863.9282      	11575.0365    	1196    
1691 	864.3635      	11569.2064    	1196    
1692 	864.7990      	11563.3813    	1198    
1693 	865.2344      	11557.5621    	1197    
1694 	865.6699      	11551.7479    	1198    
1695 	866.1053      	11545.9396    	1199    
1696 	866.5409      	11540.1363    	1201    
1697 	866.9764      	11534.3388    	1203    
1698 	867.4120      	11528.5472    	1202    
1699 	867.8476      	11522.7605    	1202    
1700 	868.2833      	11516.9789    	1202    
1701 	868.7189      	11511.2030    	1202    
1702 	869.1546      	11505.4330    	1202    
1703 	869.5903      	11499.6679    	1202    
1704 	870.0261      	11493.9086    	1202    
1705 	870.4619      	11488.1542    	1204    
1706 	870.8976      	11482.4056    	1207    
1707 	871.3335      	11476.6620    	1209    
1708 	871.7693      	11470.9241    	1209    
1709 	872.2053      	11465.1911    	1210    
1710 	872.6412      	11459.4639    	1211    
1711 	873.0771      	11453.7423    	1213    
1712 	873.5131      	11448.0257    	1215    
1713 	873.9490      	11442.3148    	1213    
1714 	874.3851      	11436.6088    	1214    
1715 	874.8212      	11430.9077    	1216    
1716 	875.2572      	11425.2130    	1217    
1717 	875.6934      	11419.5225    	1219    
1718 	876.1295      	11413.8384    	1223    
1719 	876.5656      	11408.1591    	1229    
1720 	877.0018      	11402.4847    	1236    
1721 	877.4380      	11396.8160    	1243    
1722 	877.8743      	11391.1529    	1250    
1723 	878.3105      	11385.4946    	1257    
1724 	878.7469      	11379.8412    	1264    
1725 	879.1832      	11374.1933    	1272    
1726 	879.6196      	11368.5511    	1280    
1727 	880.0560      	11362.9137    	1289    
1728 	880.4924      	11357.2818    	1301    
1729 	880.9288      	11351.6556    	1314    
1730 	881.3653      	11346.0333    	1328    
1731 	881.8018      	11340.4174    	1342    
1732 	882.2383      	11334.8063    	1358    
1733 	882.6749      	11329.1999    	1373    
1734 	883.1115      	11323.5991    	1388    
1735 	883.5480      	11318.0038    	1402    
1736 	883.9847      	11312.4132    	1416    
1737 	884.4213      	11306.8282    	1429    
1738 	884.8580      	11301.2479    	1440    
1739 	885.2947      	11295.6731    	1451    
1740 	885.7315      	11290.1031    	1462    
1741 	886.1683      	11284.5385    	1472    
1742 	886.6050      	11278.9794    	1479    
1743 	887.0419      	11273.4250    	1484    
1744 	887.4788      	11267.8753    	1488    
1745 	887.9156      	11262.3311    	1490    
1746 	888.3525      	11256.7923    	1490    
1747 	888.7895      	11251.2582    	1488    
1748 	889.2264      	11245.7295    	1483    
1749 	889.6635      	11240.2055    	1476    
1750 	890.1005      	11234.6869    	1468    
1751 	890.5375      	11229.1729    	1458    
1752 	890.9746      	11223.6644    	1448    
1753 	891.4117      	11218.1613    	1437    
1754 	891.8488      	11212.6628    	1424    
1755 	892.2860      	11207.1689    	1411    
1756 	892.7232      	11201.6804    	1399    
1757 	893.1604      	11196.1972    	1387    
1758 	893.5977      	11190.7187    	1375    
1759 	894.0349      	11185.2455    	1363    
1760 	894.4722      	11179.7769    	1352    
1761 	894.9095      	11174.3137    	1340    
1762 	895.3469      	11168.8558    	1330    
1763 	895.7842      	11163.4025    	1322    
1764 	896.2217      	11157.9537    	1314    
1765 	896.6591      	11152.5102    	1308    
1766 	897.0966      	11147.0721    	1302    
1767 	897.5341      	11141.6385    	1298    
1768 	897.9716      	11136.2102    	1294    
1769 	898.4091      	11130.7864    	1291    
1770 	898.8467      	11125.3679    	1289    
1771 	899.2843      	11119.9539    	1286    
1772 	899.7219      	11114.5452    	1284    
1773 	900.1596      	11109.1410    	1284    
1774 	900.5973      	11103.7421    	1284    
1775 	901.0350      	11098.3483    	1287    
1776 	901.4727      	11092.9591    	1288    
1777 	901.9105      	11087.5751    	1288    
1778 	902.3483      	11082.1956    	1288    
1779 	902.7861      	11076.8213    	1289    
1780 	903.2239      	11071.4515    	1290    
1781 	903.6618      	11066.0868    	1290    
1782 	904.0997      	11060.7267    	1288    
1783 	904.5377      	11055.3717    	1287    
1784 	904.9756      	11050.0211    	1286    
1785 	905.4136      	11044.6757    	1285    
1786 	905.8516      	11039.3355    	1286    
1787 	906.2897      	11033.9997    	1286    
1788 	906.7277      	11028.6691    	1286    
1789 	907.1658      	11023.3429    	1286    
1790 	907.6039      	11018.0218    	1286    
1791 	908.0421      	11012.7051    	1285    
1792 	908.4803      	11007.3935    	1285    
1793 	908.9185      	11002.0871    	1285    
1794 	909.3567      	10996.7850    	1283    
1795 	909.7950      	10991.4873    	1281    
1796 	910.2333      	10986.1947    	1278    
1797 	910.6716      	10980.9072    	1277    
1798 	911.1099      	10975.6241    	1276    
1799 	911.5483      	10970.3460    	1275    
1800 	911.9867      	10965.0723    	1274    
1801 	912.4251      	10959.8036    	1273    
1802 	912.8636      	10954.5393    	1272    
1803 	913.3021      	10949.2800    	1271    
1804 	913.7405      	10944.0258    	1269    
1805 	914.1791      	10938.7758    	1267    
1806 	914.6177      	10933.5302    	1265    
1807 	915.0562      	10928.2904    	1262    
1808 	915.4949      	10923.0541    	1259    
1809 	915.9335      	10917.8235    	1257    
1810 	916.3722      	10912.5965    	1256    
1811 	916.8109      	10907.3753    	1255    
1812 	917.2496      	10902.1583    	1254    
1813 	917.6884      	10896.9455    	1254    
1814 	918.1271      	10891.7378    	1252    
1815 	918.5659      	10886.5350    	1249    
1816 	919.0048      	10881.3364    	1246    
1817 	919.4437      	10876.1422    	1244    
1818 	919.8825      	10870.9535    	1243    
1819 	920.3215      	10865.7684    	1241    
1820 	920.7604      	10860.5890    	1239    
1821 	921.1993      	10855.4138    	1238    
1822 	921.6384      	10850.2427    	1237    
1823 	922.0774      	10845.0767    	1237    
1824 	922.5164      	10839.9155    	1237    
1825 	922.9555      	10834.7585    	1237    
1826 	923.3947      	10829.6057    	1235    
1827 	923.8337      	10824.4585    	1233    
1828 	924.2729      	10819.3148    	1231    
1829 	924.7121      	10814.1767    	1229    
1830 	925.1513      	10809.0427    	1227    
1831 	925.5906      	10803.9129    	1225    
1832 	926.0298      	10798.7880    	1224    
1833 	926.4692      	10793.6672    	1223    
1834 	926.9085      	10788.5513    	1221    
1835 	927.3478      	10783.4402    	1220    
1836 	927.7872      	10778.3333    	1219    
1837 	928.2266      	10773.2312    	1218    
1838 	928.6661      	10768.1332    	1216    
1839 	929.1055      	10763.0400    	1214    
1840 	929.5450      	10757.9517    	1214    
1841 	929.9846      	10752.8667    	1212    
1842 	930.4241      	10747.7873    	1211    
1843 	930.8636      	10742.7119    	1209    
1844 	931.3032      	10737.6414    	1207    
1845 	931.7429      	10732.5749    	1205    
1846 	932.1825      	10727.5132    	1204    
1847 	932.6222      	10722.4555    	1203    
1848 	933.0619      	10717.4027    	1204    
1849 	933.5016      	10712.3539    	1203    
1850 	933.9414      	10707.3098    	1203    
1851 	934.3812      	10702.2698    	1202    
1852 	934.8210      	10697.2346    	1201    
1853 	935.2609      	10692.2040    	1200    
1854 	935.7007      	10687.1776    	1198    
1855 	936.1406      	10682.1558    	1198    
1856 	936.5806      	10677.1380    	1198    
1857 	937.0205      	10672.1250    	1199    
1858 	937.4605      	10667.1160    	1201    
1859 	937.9005      	10662.1117    	1200    
1860 	938.3405      	10657.1120    	1200    
1861 	938.7806      	10652.1164    	1198    
1862 	939.2207      	10647.1248    	1197    
1863 	939.6608      	10642.1385    	1196    
1864 	940.1010      	10637.1555    	1195    
1865 	940.5411      	10632.1778    	1195    
1866 	940.9813      	10627.2035    	1195    
1867 	941.4215      	10622.2345    	1195    
1868 	941.8618      	10617.2694    	1196    
1869 	942.3021      	10612.3083    	1197    
1870 	942.7424      	10607.3518    	1197    
1871 	943.1827      	10602.4000    	1198    
1872 	943.6230      	10597.4521    	1197    
1873 	944.0634      	10592.5088    	1196    
1874 	944.5038      	10587.5694    	1195    
1875 	944.9443      	10582.6346    	1194    
1876 	945.3848      	10577.7038    	1193    
1877 	945.8253      	10572.7775    	1192    
1878 	946.2657      	10567.8558    	1192    
1879 	946.7063      	10562.9381    	1192    
1880 	947.1469      	10558.0242    	1192    
1881 	947.5875      	10553.1149    	1192    
1882 	948.0281      	10548.2101    	1193    
1883 	948.4688      	10543.3093    	1192    
1884 	948.9095      	10538.4129    	1191    
1885 	949.3502      	10533.5212    	1190    
1886 	949.7909      	10528.6333    	1189    
1887 	950.2317      	10523.7492    	1188    
1888 	950.6725      	10518.8697    	1187    
1889 	951.1133      	10513.9947    	1186    
1890 	951.5541      	10509.1235    	1186    
1891 	951.9950      	10504.2569    	1186    
1892 	952.4359      	10499.3941    	1187    
1893 	952.8768      	10494.5358    	1188    
1894 	953.3178      	10489.6813    	1189    
1895 	953.7588      	10484.8313    	1189    
1896 	954.1998      	10479.9858    	1188    
1897 	954.6408      	10475.1441    	1187    
1898 	955.0819      	10470.3062    	1186    
1899 	955.5229      	10465.4734    	1185    
1900 	955.9641      	10460.6437    	1185    
1901 	956.4052      	10455.8192    	1185    
1902 	956.8464      	10450.9978    	1186    
1903 	957.2876      	10446.1815    	1186    
1904 	957.7288      	10441.3690    	1187    
1905 	958.1701      	10436.5602    	1187    
1906 	958.6113      	10431.7565    	1188    
1907 	959.0527      	10426.9560    	1188    
1908 	959.4940      	10422.1598    	1188    
1909 	959.9354      	10417.3681    	1188    
1910 	960.3767      	10412.5807    	1186    
1911 	960.8182      	10407.7964    	1185    
1912 	961.2596      	10403.0172    	1183    
1913 	961.7010      	10398.2417    	1183    
1914 	962.1426      	10393.4700    	1183    
1915 	962.5840      	10388.7032    	1183    
1916 	963.0256      	10383.9396    	1184    
1917 	963.4672      	10379.1803    	1185    
1918 	963.9088      	10374.4253    	1185    
1919 	964.3504      	10369.6747    	1185    
1920 	964.7921      	10364.9278    	1184    
1921 	965.2338      	10360.1846    	1184    
1922 	965.6755      	10355.4457    	1183    
1923 	966.1172      	10350.7112    	1183    
1924 	966.5590      	10345.9803    	1183    
1925 	967.0007      	10341.2538    	1184    
1926 	967.4426      	10336.5309    	1185    
1927 	967.8844      	10331.8124    	1186    
1928 	968.3263      	10327.0974    	1187    
1929 	968.7682      	10322.3868    	1187    
1930 	969.2101      	10317.6805    	1187    
1931 	969.6520      	10312.9779    	1186    
1932 	970.0941      	10308.2788    	1186    
1933 	970.5360      	10303.5847    	1186    
1934 	970.9781      	10298.8936    	1185    
1935 	971.4201      	10294.2074    	1185    
1936 	971.8622      	10289.5241    	1185    
1937 	972.3043      	10284.8458    	1186    
1938 	972.7465      	10280.1711    	1187    
1939 	973.1886      	10275.5006    	1188    
1940 	973.6308      	10270.8337    	1188    
1941 	974.0731      	10266.1704    	1188    
1942 	974.5153      	10261.5120    	1188    
1943 	974.9576      	10256.8565    	1187    
1944 	975.3998      	10252.2059    	1186    
1945 	975.8422      	10247.5589    	1184    
1946 	976.2845      	10242.9154    	1184    
1947 	976.7269      	10238.2761    	1185    
1948 	977.1693      	10233.6411    	1184    
1949 	977.6118      	10229.0096    	1184    
1950 	978.0542      	10224.3823    	1184    
1951 	978.4967      	10219.7585    	1184    
1952 	978.9392      	10215.1389    	1185    
1953 	979.3818      	10210.5229    	1185    
1954 	979.8243      	10205.9110    	1185    
1955 	980.2669      	10201.3033    	1184    
1956 	980.7095      	10196.6991    	1185    
1957 	981.1522      	10192.0990    	1185    
1958 	981.5948      	10187.5025    	1184    
1959 	982.0375      	10182.9102    	1183    
1960 	982.4803      	10178.3213    	1182    
1961 	982.9230      	10173.7365    	1182    
1962 	983.3658      	10169.1553    	1183    
1963 	983.8087      	10164.5782    	1183    
1964 	984.2515      	10160.0052    	1183    
1965 	984.6943      	10155.4357    	1183    
1966 	985.1372      	10150.8703    	1184    
1967 	985.5801      	10146.3084    	1183    
1968 	986.0231      	10141.7505    	1182    
1969 	986.4661      	10137.1962    	1182    
1970 	986.9091      	10132.6459    	1182    
1971 	987.3521      	10128.0997    	1183    
1972 	987.7951      	10123.5569    	1185    
1973 	988.2382      	10119.0183    	1186    
1974 	988.6813      	10114.4831    	1187    
1975 	989.1244      	10109.9519    	1187    
1976 	989.5676      	10105.4242    	1187    
1977 	990.0107      	10100.9005    	1186    
1978 	990.4539      	10096.3809    	1184    
1979 	990.8972      	10091.8647    	1183    
1980 	991.3405      	10087.3519    	1184    
1981 	991.7838      	10082.8431    	1184    
1982 	992.2271      	10078.3384    	1184    
1983 	992.6704      	10073.8371    	1184    
1984 	993.1138      	10069.3398    	1185    
1985 	993.5571      	10064.8465    	1186    
1986 	994.0005      	10060.3566    	1187    
1987 	994.4440      	10055.8701    	1186    
1988 	994.8875      	10051.3876    	1186    
1989 	995.3310      	10046.9091    	1185    
1990 	995.7745      	10042.4339    	1183    
1991 	996.2181      	10037.9628    	1183    
1992 	996.6616      	10033.4956    	1182    
1993 	997.1053      	10029.0312    	1181    
1994 	997.5489      	10024.5713    	1181    
1995 	997.9926      	10020.1148    	1181    
1996 	998.4362      	10015.6623    	1181    
1997 	998.8799      	10011.2131    	1183    
1998 	999.3237      	10006.7679    	1184    
1999 	999.7675      	10002.3260    	1184    
2000 	1000.2112     	9997.8880     	1184    
2001 	1000.6551     	9993.4534     	1183    
2002 	1001.0989     	9989.0227     	1182    
2003 	1001.5428     	9984.5959     	1181    
2004 	1001.9867     	9980.1724     	1181    
2005 	1002.4306     	9975.7529     	1180    
2006 	1002.8746     	9971.3367     	1180    
2007 	1003.3185     	9966.9243     	1180    
2008 	1003.7626     	9962.5153     	1181    
2009 	1004.2066     	9958.1102     	1182    
2010 	1004.6506     	9953.7089     	1182    
2011 	1005.0947     	9949.3110     	1182    
2012 	1005.5388     	9944.9169     	1181    
2013 	1005.9830     	9940.5261     	1180    
2014 	1006.4271     	9936.1392     	1178    
2015 	1006.8713     	9931.7556     	1177    
2016 	1007.3156     	9927.3758     	1178    
2017 	1007.7598     	9922.9998     	1178    
2018 	1008.2040     	9918.6272     	1179    
2019 	1008.6484     	9914.2578     	1179    
2020 	1009.0927     	9909.8928     	1180    
2021 	1009.5370     	9905.5305     	1181    
2022 	1009.9814     	9901.1726     	1181    
2023 	1010.4258     	9896.8179     	1181    
2024 	1010.8702     	9892.4665     	1181    
2025 	1011.3147     	9888.1189     	1180    
2026 	1011.7592     	9883.7752     	1179    
2027 	1012.2037     	9879.4346     	1178    
2028 	1012.6482     	9875.0979     	1179    
2029 	1013.0928     	9870.7643     	1179    
2030 	1013.5374     	9866.4346     	1180    
2031 	1013.9820     	9862.1081     	1181    
2032 	1014.4266     	9857.7853     	1182    
2033 	1014.8713     	9853.4664     	1182    
2034 	1015.3160     	9849.1506     	1182    
2035 	1015.7607     	9844.8386     	1183    
2036 	1016.2054     	9840.5298     	1183    
2037 	1016.6502     	9836.2248     	1181    
2038 	1017.0950     	9831.9230     	1180    
2039 	1017.5399     	9827.6249     	1179    
2040 	1017.9847     	9823.3305     	1178    
2041 	1018.4296     	9819.0394     	1177    
2042 	1018.8745     	9814.7519     	1177    
2043 	1019.3194     	9810.4677     	1177    
2044 	1019.7643     	9806.1872     	1177    
2045 	1020.2094     	9801.9098     	1178    
2046 	1020.6544     	9797.6361     	1180    
2047 	1021.0994     	9793.3656     	1181    
2048 	1021.5444     	9789.0994     	1182    
