Unit Serial No : Xe_Mono_Cal
Integration Time : 2 ms
Time Average: 15
Binning Average: 10
FFT Smoothing: 6%
Project Name : Project Name
Sample Name : 0068
Measurement No : 1
Measurement Time : 11/11/2024   12:05:49

Pixel	Wavelength(nm)	Wavenumber(1/cm)	Intensity(Counts)
1    	171.7139      	58236.3993    	1168    
2    	172.0962      	58107.0281    	1170    
3    	172.4786      	57978.2150    	1172    
4    	172.8610      	57849.9615    	1173    
5    	173.2434      	57722.2641    	1174    
6    	173.6258      	57595.1190    	1180    
7    	174.0083      	57468.5178    	1179    
8    	174.3908      	57342.4618    	1179    
9    	174.7734      	57216.9476    	1179    
10   	175.1560      	57091.9668    	1179    
11   	175.5386      	56967.5258    	1179    
12   	175.9213      	56843.6064    	1179    
13   	176.3040      	56720.2201    	1180    
14   	176.6867      	56597.3536    	1178    
15   	177.0695      	56475.0085    	1180    
16   	177.4523      	56353.1815    	1183    
17   	177.8351      	56231.8645    	1184    
18   	178.2180      	56111.0591    	1183    
19   	178.6009      	55990.7621    	1182    
20   	178.9838      	55870.9703    	1181    
21   	179.3668      	55751.6757    	1182    
22   	179.7498      	55632.8800    	1182    
23   	180.1329      	55514.5802    	1182    
24   	180.5159      	55396.7683    	1182    
25   	180.8991      	55279.4461    	1183    
26   	181.2822      	55162.6104    	1185    
27   	181.6654      	55046.2538    	1181    
28   	182.0486      	54930.3823    	1182    
29   	182.4319      	54814.9840    	1181    
30   	182.8152      	54700.0557    	1180    
31   	183.1985      	54585.6038    	1180    
32   	183.5818      	54471.6163    	1178    
33   	183.9652      	54358.0949    	1177    
34   	184.3487      	54245.0322    	1177    
35   	184.7321      	54132.4298    	1179    
36   	185.1156      	54020.2851    	1181    
37   	185.4992      	53908.5953    	1181    
38   	185.8828      	53797.3530    	1181    
39   	186.2664      	53686.5601    	1181    
40   	186.6500      	53576.2139    	1183    
41   	187.0337      	53466.3116    	1184    
42   	187.4174      	53356.8463    	1184    
43   	187.8011      	53247.8196    	1185    
44   	188.1849      	53139.2290    	1183    
45   	188.5687      	53031.0675    	1183    
46   	188.9526      	52923.3368    	1186    
47   	189.3364      	52816.0345    	1185    
48   	189.7204      	52709.1579    	1185    
49   	190.1043      	52602.7003    	1185    
50   	190.4883      	52496.6635    	1186    
51   	190.8723      	52391.0449    	1187    
52   	191.2564      	52285.8380    	1188    
53   	191.6405      	52181.0444    	1190    
54   	192.0246      	52076.6618    	1192    
55   	192.4088      	51972.6877    	1192    
56   	192.7930      	51869.1156    	1191    
57   	193.1772      	51765.9474    	1190    
58   	193.5614      	51663.1806    	1191    
59   	193.9457      	51560.8129    	1192    
60   	194.3301      	51458.8380    	1193    
61   	194.7144      	51357.2575    	1193    
62   	195.0988      	51256.0693    	1194    
63   	195.4833      	51155.2671    	1194    
64   	195.8678      	51054.8526    	1194    
65   	196.2523      	50954.8237    	1195    
66   	196.6368      	50855.1781    	1195    
67   	197.0214      	50755.9096    	1191    
68   	197.4060      	50657.0201    	1191    
69   	197.7906      	50558.5073    	1195    
70   	198.1753      	50460.3654    	1196    
71   	198.5601      	50362.5959    	1196    
72   	198.9448      	50265.1969    	1193    
73   	199.3296      	50168.1662    	1191    
74   	199.7144      	50071.4980    	1191    
75   	200.0993      	49975.1939    	1191    
76   	200.4842      	49879.2520    	1191    
77   	200.8691      	49783.6701    	1190    
78   	201.2540      	49688.4426    	1191    
79   	201.6390      	49593.5712    	1191    
80   	202.0241      	49499.0540    	1190    
81   	202.4091      	49404.8851    	1191    
82   	202.7942      	49311.0701    	1191    
83   	203.1794      	49217.5997    	1191    
84   	203.5645      	49124.4719    	1194    
85   	203.9497      	49031.6922    	1193    
86   	204.3350      	48939.2513    	1193    
87   	204.7202      	48847.1510    	1192    
88   	205.1055      	48755.3859    	1192    
89   	205.4909      	48663.9613    	1192    
90   	205.8763      	48572.8681    	1188    
91   	206.2617      	48482.1046    	1187    
92   	206.6471      	48391.6760    	1187    
93   	207.0326      	48301.5735    	1191    
94   	207.4181      	48211.7988    	1194    
95   	207.8036      	48122.3501    	1195    
96   	208.1892      	48033.2222    	1197    
97   	208.5748      	47944.4203    	1197    
98   	208.9605      	47855.9356    	1197    
99   	209.3462      	47767.7666    	1196    
100  	209.7319      	47679.9183    	1195    
101  	210.1177      	47592.3822    	1195    
102  	210.5034      	47505.1600    	1195    
103  	210.8893      	47418.2466    	1195    
104  	211.2751      	47331.6439    	1195    
105  	211.6610      	47245.3501    	1194    
106  	212.0470      	47159.3636    	1195    
107  	212.4329      	47073.6828    	1199    
108  	212.8189      	46988.3026    	1200    
109  	213.2050      	46903.2249    	1202    
110  	213.5910      	46818.4480    	1200    
111  	213.9771      	46733.9670    	1198    
112  	214.3633      	46649.7871    	1198    
113  	214.7494      	46565.8966    	1198    
114  	215.1356      	46482.3040    	1197    
115  	215.5219      	46399.0044    	1196    
116  	215.9081      	46315.9930    	1196    
117  	216.2944      	46233.2716    	1196    
118  	216.6808      	46150.8354    	1196    
119  	217.0672      	46068.6894    	1197    
120  	217.4536      	45986.8257    	1198    
121  	217.8400      	45905.2459    	1199    
122  	218.2265      	45823.9455    	1203    
123  	218.6130      	45742.9293    	1202    
124  	218.9996      	45662.1895    	1202    
125  	219.3862      	45581.7280    	1201    
126  	219.7728      	45501.5400    	1201    
127  	220.1594      	45421.6274    	1205    
128  	220.5461      	45341.9886    	1201    
129  	220.9328      	45262.6225    	1201    
130  	221.3196      	45183.5274    	1200    
131  	221.7064      	45104.6990    	1202    
132  	222.0932      	45026.1389    	1202    
133  	222.4801      	44947.8459    	1202    
134  	222.8670      	44869.8155    	1203    
135  	223.2539      	44792.0525    	1202    
136  	223.6409      	44714.5494    	1203    
137  	224.0279      	44637.3049    	1202    
138  	224.4149      	44560.3238    	1201    
139  	224.8020      	44483.5987    	1202    
140  	225.1891      	44407.1313    	1202    
141  	225.5762      	44330.9204    	1203    
142  	225.9634      	44254.9617    	1204    
143  	226.3506      	44179.2568    	1200    
144  	226.7378      	44103.8046    	1201    
145  	227.1251      	44028.6038    	1200    
146  	227.5124      	43953.6531    	1200    
147  	227.8997      	43878.9483    	1204    
148  	228.2871      	43804.4912    	1200    
149  	228.6745      	43730.2776    	1200    
150  	229.0620      	43656.3121    	1201    
151  	229.4494      	43582.5877    	1202    
152  	229.8369      	43509.1061    	1203    
153  	230.2245      	43435.8661    	1203    
154  	230.6121      	43362.8637    	1202    
155  	230.9997      	43290.1005    	1202    
156  	231.3873      	43217.5754    	1203    
157  	231.7750      	43145.2872    	1202    
158  	232.1628      	43073.2320    	1202    
159  	232.5505      	43001.4142    	1202    
160  	232.9383      	42929.8271    	1202    
161  	233.3261      	42858.4695    	1201    
162  	233.7140      	42787.3459    	1202    
163  	234.1019      	42716.4497    	1201    
164  	234.4898      	42645.7824    	1202    
165  	234.8777      	42575.3403    	1207    
166  	235.2657      	42505.1278    	1207    
167  	235.6538      	42435.1382    	1206    
168  	236.0418      	42365.3733    	1202    
169  	236.4299      	42295.8319    	1201    
170  	236.8181      	42226.5103    	1200    
171  	237.2062      	42157.4101    	1200    
172  	237.5944      	42088.5303    	1200    
173  	237.9827      	42019.8698    	1199    
174  	238.3709      	41951.4276    	1202    
175  	238.7592      	41883.2000    	1205    
176  	239.1476      	41815.1886    	1206    
177  	239.5359      	41747.3923    	1207    
178  	239.9243      	41679.8077    	1207    
179  	240.3128      	41612.4362    	1207    
180  	240.7012      	41545.2769    	1208    
181  	241.0898      	41478.3288    	1208    
182  	241.4783      	41411.5908    	1210    
183  	241.8669      	41345.0595    	1208    
184  	242.2555      	41278.7363    	1208    
185  	242.6441      	41212.6205    	1211    
186  	243.0328      	41146.7083    	1207    
187  	243.4215      	41081.0041    	1208    
188  	243.8103      	41015.5017    	1209    
189  	244.1991      	40950.2001    	1210    
190  	244.5879      	40885.1036    	1210    
191  	244.9767      	40820.2061    	1207    
192  	245.3656      	40755.5092    	1206    
193  	245.7545      	40691.0121    	1205    
194  	246.1435      	40626.7137    	1206    
195  	246.5325      	40562.6106    	1205    
196  	246.9215      	40498.7071    	1205    
197  	247.3105      	40434.9946    	1205    
198  	247.6996      	40371.4797    	1205    
199  	248.0887      	40308.1591    	1205    
200  	248.4779      	40245.0294    	1205    
201  	248.8671      	40182.0923    	1204    
202  	249.2563      	40119.3443    	1204    
203  	249.6456      	40056.7895    	1206    
204  	250.0349      	39994.4222    	1207    
205  	250.4242      	39932.2439    	1207    
206  	250.8136      	39870.2538    	1203    
207  	251.2030      	39808.4486    	1202    
208  	251.5924      	39746.8323    	1202    
209  	251.9818      	39685.3992    	1203    
210  	252.3713      	39624.1510    	1204    
211  	252.7609      	39563.0844    	1204    
212  	253.1504      	39502.2033    	1208    
213  	253.5400      	39441.5022    	1209    
214  	253.9297      	39380.9826    	1209    
215  	254.3194      	39320.6414    	1208    
216  	254.7090      	39260.4824    	1207    
217  	255.0988      	39200.5002    	1206    
218  	255.4886      	39140.6964    	1206    
219  	255.8784      	39081.0678    	1207    
220  	256.2682      	39021.6159    	1208    
221  	256.6581      	38962.3423    	1209    
222  	257.0480      	38903.2439    	1211    
223  	257.4379      	38844.3152    	1212    
224  	257.8279      	38785.5603    	1208    
225  	258.2179      	38726.9782    	1209    
226  	258.6080      	38668.5683    	1207    
227  	258.9980      	38610.3298    	1208    
228  	259.3882      	38552.2619    	1213    
229  	259.7783      	38494.3638    	1213    
230  	260.1685      	38436.6349    	1213    
231  	260.5587      	38379.0699    	1211    
232  	260.9489      	38321.6726    	1211    
233  	261.3392      	38264.4467    	1211    
234  	261.7295      	38207.3826    	1213    
235  	262.1199      	38150.4839    	1215    
236  	262.5103      	38093.7501    	1215    
237  	262.9007      	38037.1759    	1215    
238  	263.2911      	37980.7695    	1215    
239  	263.6816      	37924.5257    	1215    
240  	264.0721      	37868.4395    	1214    
241  	264.4627      	37812.5146    	1213    
242  	264.8533      	37756.7547    	1214    
243  	265.2439      	37701.1503    	1217    
244  	265.6346      	37645.7051    	1217    
245  	266.0252      	37590.4184    	1218    
246  	266.4160      	37535.2853    	1218    
247  	266.8067      	37480.3136    	1220    
248  	267.1975      	37425.4985    	1220    
249  	267.5883      	37370.8349    	1216    
250  	267.9792      	37316.3266    	1215    
251  	268.3701      	37261.9728    	1215    
252  	268.7610      	37207.7771    	1217    
253  	269.1520      	37153.7304    	1217    
254  	269.5430      	37099.8320    	1218    
255  	269.9340      	37046.0899    	1218    
256  	270.3251      	36992.4990    	1218    
257  	270.7162      	36939.0546    	1219    
258  	271.1073      	36885.7644    	1220    
259  	271.4985      	36832.6195    	1221    
260  	271.8897      	36779.6234    	1220    
261  	272.2809      	36726.7755    	1221    
262  	272.6722      	36674.0751    	1222    
263  	273.0635      	36621.5216    	1221    
264  	273.4548      	36569.1144    	1217    
265  	273.8462      	36516.8530    	1217    
266  	274.2376      	36464.7326    	1222    
267  	274.6290      	36412.7608    	1223    
268  	275.0205      	36360.9288    	1223    
269  	275.4120      	36309.2402    	1222    
270  	275.8035      	36257.6943    	1221    
271  	276.1951      	36206.2906    	1221    
272  	276.5867      	36155.0284    	1220    
273  	276.9783      	36103.9072    	1220    
274  	277.3700      	36052.9263    	1219    
275  	277.7617      	36002.0814    	1220    
276  	278.1534      	35951.3796    	1220    
277  	278.5452      	35900.8126    	1220    
278  	278.9370      	35850.3837    	1221    
279  	279.3289      	35800.0924    	1221    
280  	279.7208      	35749.9381    	1221    
281  	280.1127      	35699.9202    	1225    
282  	280.5046      	35650.0382    	1223    
283  	280.8966      	35600.2916    	1222    
284  	281.2886      	35550.6758    	1221    
285  	281.6806      	35501.1982    	1221    
286  	282.0727      	35451.8504    	1221    
287  	282.4648      	35402.6358    	1217    
288  	282.8570      	35353.5539    	1216    
289  	283.2491      	35304.6078    	1217    
290  	283.6414      	35255.7857    	1219    
291  	284.0336      	35207.0985    	1221    
292  	284.4259      	35158.5418    	1222    
293  	284.8182      	35110.1150    	1223    
294  	285.2106      	35061.8140    	1223    
295  	285.6029      	35013.6457    	1224    
296  	285.9954      	34965.6021    	1223    
297  	286.3878      	34917.6864    	1223    
298  	286.7803      	34869.8982    	1222    
299  	287.1728      	34822.2369    	1222    
300  	287.5654      	34774.7020    	1223    
301  	287.9579      	34727.2930    	1224    
302  	288.3506      	34680.0058    	1222    
303  	288.7432      	34632.8472    	1223    
304  	289.1359      	34585.8094    	1224    
305  	289.5286      	34538.8992    	1226    
306  	289.9214      	34492.1088    	1230    
307  	290.3142      	34445.4413    	1230    
308  	290.7070      	34398.8964    	1231    
309  	291.0999      	34352.4735    	1231    
310  	291.4927      	34306.1721    	1232    
311  	291.8857      	34259.9918    	1233    
312  	292.2786      	34213.9285    	1232    
313  	292.6716      	34167.9889    	1232    
314  	293.0646      	34122.1654    	1232    
315  	293.4577      	34076.4647    	1234    
316  	293.8508      	34030.8791    	1234    
317  	294.2439      	33985.4118    	1235    
318  	294.6371      	33940.0624    	1235    
319  	295.0302      	33894.8302    	1236    
320  	295.4235      	33849.7150    	1236    
321  	295.8167      	33804.7128    	1236    
322  	296.2100      	33759.8300    	1234    
323  	296.6033      	33715.0629    	1235    
324  	296.9967      	33670.4073    	1239    
325  	297.3901      	33625.8665    	1240    
326  	297.7835      	33581.4399    	1240    
327  	298.1770      	33537.1271    	1237    
328  	298.5705      	33492.9276    	1238    
329  	298.9640      	33448.8411    	1238    
330  	299.3576      	33404.8671    	1238    
331  	299.7512      	33361.0052    	1238    
332  	300.1448      	33317.2516    	1237    
333  	300.5385      	33273.6125    	1239    
334  	300.9322      	33230.0809    	1239    
335  	301.3259      	33186.6630    	1240    
336  	301.7196      	33143.3518    	1241    
337  	302.1134      	33100.1501    	1241    
338  	302.5073      	33057.0575    	1242    
339  	302.9011      	33014.0737    	1243    
340  	303.2950      	32971.1949    	1242    
341  	303.6890      	32928.4273    	1243    
342  	304.0829      	32885.7672    	1243    
343  	304.4769      	32843.2110    	1244    
344  	304.8709      	32800.7647    	1247    
345  	305.2650      	32758.4214    	1243    
346  	305.6591      	32716.1841    	1242    
347  	306.0533      	32674.0523    	1243    
348  	306.4474      	32632.0256    	1243    
349  	306.8416      	32590.1037    	1243    
350  	307.2358      	32548.2860    	1241    
351  	307.6301      	32506.5724    	1240    
352  	308.0244      	32464.9591    	1239    
353  	308.4187      	32423.4522    	1239    
354  	308.8131      	32382.0449    	1239    
355  	309.2075      	32340.7400    	1239    
356  	309.6019      	32299.5404    	1238    
357  	309.9964      	32258.4392    	1237    
358  	310.3909      	32217.4394    	1237    
359  	310.7854      	32176.5405    	1238    
360  	311.1800      	32135.7390    	1236    
361  	311.5746      	32095.0408    	1237    
362  	311.9692      	32054.4425    	1241    
363  	312.3639      	32013.9404    	1241    
364  	312.7586      	31973.5406    	1240    
365  	313.1534      	31933.2365    	1236    
366  	313.5481      	31893.0307    	1236    
367  	313.9429      	31852.9229    	1236    
368  	314.3378      	31812.9127    	1235    
369  	314.7326      	31772.9999    	1236    
370  	315.1275      	31733.1840    	1236    
371  	315.5225      	31693.4648    	1240    
372  	315.9174      	31653.8417    	1242    
373  	316.3124      	31614.3116    	1243    
374  	316.7075      	31574.8800    	1244    
375  	317.1025      	31535.5406    	1243    
376  	317.4977      	31496.2961    	1243    
377  	317.8928      	31457.1491    	1244    
378  	318.2879      	31418.0933    	1244    
379  	318.6831      	31379.1314    	1244    
380  	319.0784      	31340.2630    	1243    
381  	319.4737      	31301.4847    	1245    
382  	319.8690      	31262.8024    	1248    
383  	320.2643      	31224.2125    	1245    
384  	320.6597      	31185.7118    	1246    
385  	321.0551      	31147.3060    	1246    
386  	321.4505      	31108.9887    	1247    
387  	321.8460      	31070.7627    	1251    
388  	322.2415      	31032.6275    	1252    
389  	322.6370      	30994.5829    	1252    
390  	323.0326      	30956.6286    	1250    
391  	323.4282      	30918.7642    	1249    
392  	323.8238      	30880.9894    	1249    
393  	324.2195      	30843.3038    	1250    
394  	324.6152      	30805.7044    	1251    
395  	325.0109      	30768.1965    	1250    
396  	325.4067      	30730.7740    	1251    
397  	325.8025      	30693.4425    	1252    
398  	326.1983      	30656.1958    	1252    
399  	326.5942      	30619.0366    	1252    
400  	326.9901      	30581.9645    	1253    
401  	327.3860      	30544.9792    	1253    
402  	327.7820      	30508.0804    	1255    
403  	328.1780      	30471.2678    	1253    
404  	328.5741      	30434.5383    	1254    
405  	328.9701      	30397.8972    	1253    
406  	329.3662      	30361.3387    	1254    
407  	329.7624      	30324.8679    	1255    
408  	330.1585      	30288.4791    	1251    
409  	330.5547      	30252.1747    	1251    
410  	330.9510      	30215.9572    	1250    
411  	331.3472      	30179.8208    	1251    
412  	331.7435      	30143.7680    	1253    
413  	332.1399      	30107.7956    	1253    
414  	332.5363      	30071.9090    	1252    
415  	332.9326      	30036.1051    	1253    
416  	333.3291      	30000.3809    	1255    
417  	333.7256      	29964.7415    	1256    
418  	334.1221      	29929.1812    	1256    
419  	334.5186      	29893.7053    	1257    
420  	334.9152      	29858.3079    	1259    
421  	335.3118      	29822.9915    	1260    
422  	335.7084      	29787.7559    	1261    
423  	336.1051      	29752.6007    	1259    
424  	336.5018      	29717.5257    	1258    
425  	336.8985      	29682.5306    	1262    
426  	337.2953      	29647.6152    	1263    
427  	337.6921      	29612.7764    	1265    
428  	338.0889      	29578.0195    	1264    
429  	338.4858      	29543.3387    	1263    
430  	338.8827      	29508.7391    	1264    
431  	339.2796      	29474.2152    	1266    
432  	339.6766      	29439.7693    	1267    
433  	340.0736      	29405.4012    	1266    
434  	340.4706      	29371.1106    	1266    
435  	340.8677      	29336.8973    	1266    
436  	341.2648      	29302.7610    	1265    
437  	341.6619      	29268.7014    	1265    
438  	342.0591      	29234.7157    	1265    
439  	342.4563      	29200.8088    	1267    
440  	342.8535      	29166.9778    	1271    
441  	343.2508      	29133.2200    	1270    
442  	343.6481      	29099.5377    	1270    
443  	344.0454      	29065.9331    	1270    
444  	344.4427      	29032.4010    	1270    
445  	344.8401      	28998.9435    	1270    
446  	345.2376      	28965.5605    	1267    
447  	345.6350      	28932.2518    	1268    
448  	346.0325      	28899.0170    	1267    
449  	346.4301      	28865.8533    	1269    
450  	346.8276      	28832.7657    	1272    
451  	347.2253      	28799.7488    	1273    
452  	347.6229      	28766.8075    	1274    
453  	348.0205      	28733.9364    	1275    
454  	348.4182      	28701.1403    	1276    
455  	348.8159      	28668.4139    	1277    
456  	349.2137      	28635.7597    	1277    
457  	349.6115      	28603.1772    	1276    
458  	350.0093      	28570.6663    	1276    
459  	350.4072      	28538.2267    	1276    
460  	350.8051      	28505.8582    	1277    
461  	351.2030      	28473.5606    	1273    
462  	351.6010      	28441.3312    	1272    
463  	351.9990      	28409.1747    	1271    
464  	352.3970      	28377.0858    	1272    
465  	352.7950      	28345.0694    	1276    
466  	353.1931      	28313.1202    	1277    
467  	353.5913      	28281.2406    	1276    
468  	353.9894      	28249.4302    	1274    
469  	354.3876      	28217.6889    	1275    
470  	354.7859      	28186.0164    	1275    
471  	355.1841      	28154.4124    	1271    
472  	355.5824      	28122.8769    	1269    
473  	355.9807      	28091.4096    	1269    
474  	356.3791      	28060.0101    	1269    
475  	356.7775      	28028.6760    	1269    
476  	357.1759      	27997.4118    	1268    
477  	357.5743      	27966.2125    	1269    
478  	357.9728      	27935.0803    	1271    
479  	358.3713      	27904.0173    	1271    
480  	358.7699      	27873.0185    	1271    
481  	359.1685      	27842.0862    	1269    
482  	359.5671      	27811.2201    	1271    
483  	359.9658      	27780.4201    	1276    
484  	360.3644      	27749.6858    	1277    
485  	360.7632      	27719.0147    	1278    
486  	361.1619      	27688.4114    	1274    
487  	361.5607      	27657.8733    	1275    
488  	361.9595      	27627.3977    	1276    
489  	362.3584      	27596.9893    	1278    
490  	362.7573      	27566.6431    	1278    
491  	363.1562      	27536.3612    	1278    
492  	363.5551      	27506.1458    	1281    
493  	363.9541      	27475.9920    	1284    
494  	364.3531      	27445.9020    	1284    
495  	364.7522      	27415.8755    	1284    
496  	365.1512      	27385.9124    	1285    
497  	365.5504      	27356.0124    	1286    
498  	365.9495      	27326.1730    	1288    
499  	366.3487      	27296.3987    	1287    
500  	366.7479      	27266.6869    	1288    
501  	367.1472      	27237.0352    	1288    
502  	367.5464      	27207.4479    	1288    
503  	367.9457      	27177.9203    	1291    
504  	368.3451      	27148.4545    	1286    
505  	368.7444      	27119.0525    	1285    
506  	369.1439      	27089.7097    	1286    
507  	369.5433      	27060.4280    	1286    
508  	369.9428      	27031.2074    	1288    
509  	370.3423      	27002.0476    	1287    
510  	370.7419      	26972.9461    	1286    
511  	371.1414      	26943.9074    	1286    
512  	371.5410      	26914.9288    	1287    
513  	371.9407      	26886.0082    	1286    
514  	372.3403      	26857.1496    	1286    
515  	372.7401      	26828.3485    	1286    
516  	373.1398      	26799.6091    	1287    
517  	373.5396      	26770.9269    	1287    
518  	373.9394      	26742.3038    	1287    
519  	374.3392      	26713.7418    	1286    
520  	374.7390      	26685.2364    	1288    
521  	375.1389      	26656.7897    	1291    
522  	375.5389      	26628.4013    	1292    
523  	375.9389      	26600.0691    	1291    
524  	376.3389      	26571.7970    	1287    
525  	376.7389      	26543.5829    	1286    
526  	377.1390      	26515.4243    	1284    
527  	377.5391      	26487.3254    	1282    
528  	377.9392      	26459.2838    	1280    
529  	378.3394      	26431.2973    	1277    
530  	378.7396      	26403.3678    	1277    
531  	379.1398      	26375.4973    	1277    
532  	379.5400      	26347.6813    	1277    
533  	379.9403      	26319.9218    	1276    
534  	380.3407      	26292.2187    	1276    
535  	380.7410      	26264.5716    	1276    
536  	381.1414      	26236.9806    	1276    
537  	381.5418      	26209.4454    	1275    
538  	381.9423      	26181.9637    	1275    
539  	382.3428      	26154.5396    	1274    
540  	382.7433      	26127.1708    	1274    
541  	383.1439      	26099.8550    	1274    
542  	383.5445      	26072.5964    	1271    
543  	383.9451      	26045.3904    	1273    
544  	384.3458      	26018.2391    	1274    
545  	384.7464      	25991.1444    	1277    
546  	385.1472      	25964.1019    	1283    
547  	385.5479      	25937.1136    	1287    
548  	385.9487      	25910.1793    	1290    
549  	386.3495      	25883.2988    	1290    
550  	386.7504      	25856.4720    	1292    
551  	387.1512      	25829.6987    	1294    
552  	387.5522      	25802.9767    	1298    
553  	387.9531      	25776.3100    	1301    
554  	388.3541      	25749.6963    	1304    
555  	388.7551      	25723.1334    	1307    
556  	389.1562      	25696.6253    	1310    
557  	389.5573      	25670.1678    	1313    
558  	389.9584      	25643.7627    	1315    
559  	390.3595      	25617.4118    	1317    
560  	390.7607      	25591.1111    	1319    
561  	391.1619      	25564.8623    	1323    
562  	391.5631      	25538.6653    	1325    
563  	391.9644      	25512.5200    	1327    
564  	392.3657      	25486.4261    	1329    
565  	392.7671      	25460.3836    	1331    
566  	393.1685      	25434.3903    	1333    
567  	393.5699      	25408.4501    	1332    
568  	393.9713      	25382.5607    	1335    
569  	394.3728      	25356.7201    	1337    
570  	394.7743      	25330.9321    	1343    
571  	395.1758      	25305.1925    	1348    
572  	395.5774      	25279.5052    	1350    
573  	395.9790      	25253.8662    	1353    
574  	396.3806      	25228.2771    	1355    
575  	396.7823      	25202.7379    	1358    
576  	397.1840      	25177.2504    	1362    
577  	397.5857      	25151.8105    	1366    
578  	397.9875      	25126.4200    	1370    
579  	398.3893      	25101.0769    	1375    
580  	398.7911      	25075.7848    	1381    
581  	399.1930      	25050.5418    	1386    
582  	399.5948      	25025.3476    	1389    
583  	399.9968      	25000.2003    	1394    
584  	400.3987      	24975.1034    	1403    
585  	400.8008      	24950.0531    	1408    
586  	401.2028      	24925.0529    	1414    
587  	401.6048      	24900.0991    	1419    
588  	402.0069      	24875.1951    	1424    
589  	402.4090      	24850.3372    	1431    
590  	402.8112      	24825.5270    	1439    
591  	403.2134      	24800.7644    	1447    
592  	403.6156      	24776.0493    	1454    
593  	404.0179      	24751.3815    	1462    
594  	404.4201      	24726.7609    	1471    
595  	404.8224      	24702.1874    	1480    
596  	405.2248      	24677.6609    	1491    
597  	405.6272      	24653.1792    	1501    
598  	406.0296      	24628.7462    	1513    
599  	406.4320      	24604.3596    	1529    
600  	406.8345      	24580.0176    	1544    
601  	407.2370      	24555.7237    	1559    
602  	407.6396      	24531.4741    	1575    
603  	408.0422      	24507.2706    	1594    
604  	408.4448      	24483.1147    	1613    
605  	408.8474      	24459.0028    	1632    
606  	409.2501      	24434.9365    	1656    
607  	409.6528      	24410.9157    	1681    
608  	410.0555      	24386.9402    	1710    
609  	410.4583      	24363.0100    	1742    
610  	410.8611      	24339.1249    	1775    
611  	411.2639      	24315.2848    	1810    
612  	411.6668      	24291.4896    	1848    
613  	412.0697      	24267.7372    	1890    
614  	412.4727      	24244.0313    	1934    
615  	412.8756      	24220.3699    	1980    
616  	413.2786      	24196.7510    	2032    
617  	413.6816      	24173.1782    	2089    
618  	414.0847      	24149.6476    	2149    
619  	414.4878      	24126.1611    	2211    
620  	414.8909      	24102.7202    	2274    
621  	415.2941      	24079.3213    	2344    
622  	415.6973      	24055.9659    	2424    
623  	416.1005      	24032.6541    	2506    
624  	416.5038      	24009.3857    	2592    
625  	416.9071      	23986.1605    	2682    
626  	417.3104      	23962.9785    	2777    
627  	417.7137      	23939.8395    	2880    
628  	418.1171      	23916.7433    	2988    
629  	418.5205      	23893.6900    	3102    
630  	418.9240      	23870.6776    	3220    
631  	419.3275      	23847.7094    	3347    
632  	419.7310      	23824.7820    	3485    
633  	420.1346      	23801.8986    	3633    
634  	420.5381      	23779.0557    	3789    
635  	420.9417      	23756.2565    	3953    
636  	421.3454      	23733.4976    	4129    
637  	421.7491      	23710.7806    	4314    
638  	422.1528      	23688.1070    	4505    
639  	422.5565      	23665.4733    	4710    
640  	422.9603      	23642.8811    	4929    
641  	423.3641      	23620.3303    	5163    
642  	423.7679      	23597.8208    	5411    
643  	424.1718      	23575.3524    	5664    
644  	424.5757      	23552.9251    	5939    
645  	424.9797      	23530.5371    	6233    
646  	425.3836      	23508.1915    	6544    
647  	425.7876      	23485.8867    	6873    
648  	426.1917      	23463.6208    	7217    
649  	426.5957      	23441.3971    	7578    
650  	426.9998      	23419.2138    	7958    
651  	427.4040      	23397.0691    	8362    
652  	427.8081      	23374.9645    	8794    
653  	428.2123      	23352.9017    	9253    
654  	428.6165      	23330.8772    	9734    
655  	429.0208      	23308.8925    	10238   
656  	429.4251      	23286.9492    	10770   
657  	429.8294      	23265.0439    	11331   
658  	430.2338      	23243.1781    	11921   
659  	430.6382      	23221.3517    	12549   
660  	431.0426      	23199.5646    	13203   
661  	431.4470      	23177.8167    	13885   
662  	431.8515      	23156.1063    	14613   
663  	432.2560      	23134.4366    	15368   
664  	432.6606      	23112.8057    	16155   
665  	433.0652      	23091.2136    	16987   
666  	433.4698      	23069.6586    	17870   
667  	433.8744      	23048.1437    	18803   
668  	434.2791      	23026.6658    	19779   
669  	434.6838      	23005.2278    	20796   
670  	435.0886      	22983.8265    	21853   
671  	435.4933      	22962.4649    	22963   
672  	435.8981      	22941.1398    	24113   
673  	436.3030      	22919.8527    	25294   
674  	436.7079      	22898.6034    	26496   
675  	437.1128      	22877.3920    	27731   
676  	437.5177      	22856.2197    	29028   
677  	437.9226      	22835.0835    	30378   
678  	438.3276      	22813.9847    	31755   
679  	438.7327      	22792.9217    	33169   
680  	439.1378      	22771.8976    	34617   
681  	439.5428      	22750.9106    	36114   
682  	439.9480      	22729.9607    	37657   
683  	440.3531      	22709.0477    	39222   
684  	440.7583      	22688.1701    	40827   
685  	441.1635      	22667.3308    	42438   
686  	441.5688      	22646.5282    	44031   
687  	441.9741      	22625.7607    	45617   
688  	442.3794      	22605.0296    	47187   
689  	442.7848      	22584.3365    	48748   
690  	443.1902      	22563.6781    	50310   
691  	443.5956      	22543.0575    	51810   
692  	444.0010      	22522.4714    	53227   
693  	444.4065      	22501.9214    	54574   
694  	444.8120      	22481.4073    	55849   
695  	445.2176      	22460.9290    	57064   
696  	445.6231      	22440.4865    	58210   
697  	446.0287      	22420.0795    	59260   
698  	446.4344      	22399.7082    	60215   
699  	446.8401      	22379.3723    	61101   
700  	447.2458      	22359.0718    	61905   
701  	447.6515      	22338.8065    	62624   
702  	448.0573      	22318.5764    	63250   
703  	448.4631      	22298.3799    	63785   
704  	448.8689      	22278.2199    	64232   
705  	449.2748      	22258.0934    	64580   
706  	449.6807      	22238.0031    	64789   
707  	450.0866      	22217.9476    	64860   
708  	450.4926      	22197.9252    	64793   
709  	450.8986      	22177.9373    	64586   
710  	451.3046      	22157.9855    	64245   
711  	451.7106      	22138.0665    	63770   
712  	452.1167      	22118.1817    	63214   
713  	452.5228      	22098.3327    	62543   
714  	452.9290      	22078.5163    	61786   
715  	453.3352      	22058.7339    	60959   
716  	453.7414      	22038.9855    	60056   
717  	454.1476      	22019.2709    	59108   
718  	454.5539      	21999.5901    	58084   
719  	454.9602      	21979.9429    	56967   
720  	455.3666      	21960.3293    	55776   
721  	455.7729      	21940.7493    	54522   
722  	456.1794      	21921.2011    	53209   
723  	456.5858      	21901.6878    	51836   
724  	456.9923      	21882.2078    	50405   
725  	457.3988      	21862.7594    	48922   
726  	457.8053      	21843.3456    	47398   
727  	458.2119      	21823.9648    	45906   
728  	458.6185      	21804.6154    	44463   
729  	459.0251      	21785.2989    	43036   
730  	459.4318      	21766.0165    	41636   
731  	459.8385      	21746.7654    	40271   
732  	460.2452      	21727.5483    	38931   
733  	460.6520      	21708.3623    	37626   
734  	461.0588      	21689.2086    	36401   
735  	461.4656      	21670.0873    	35233   
736  	461.8725      	21650.9983    	34095   
737  	462.2793      	21631.9429    	32992   
738  	462.6862      	21612.9181    	31899   
739  	463.0932      	21593.9253    	30843   
740  	463.5002      	21574.9645    	29849   
741  	463.9072      	21556.0341    	28899   
742  	464.3143      	21537.1369    	27981   
743  	464.7213      	21518.2714    	27090   
744  	465.1284      	21499.4375    	26225   
745  	465.5356      	21480.6351    	25385   
746  	465.9428      	21461.8628    	24563   
747  	466.3500      	21443.1232    	23764   
748  	466.7572      	21424.4150    	22984   
749  	467.1645      	21405.7366    	22213   
750  	467.5718      	21387.0907    	21469   
751  	467.9791      	21368.4745    	20760   
752  	468.3865      	21349.8906    	20062   
753  	468.7939      	21331.3363    	19386   
754  	469.2013      	21312.8128    	18733   
755  	469.6088      	21294.3215    	18083   
756  	470.0163      	21275.8594    	17445   
757  	470.4238      	21257.4280    	16833   
758  	470.8314      	21239.0271    	16246   
759  	471.2389      	21220.6580    	15672   
760  	471.6465      	21202.3179    	15122   
761  	472.0542      	21184.0081    	14586   
762  	472.4619      	21165.7286    	14065   
763  	472.8696      	21147.4792    	13563   
764  	473.2773      	21129.2599    	13081   
765  	473.6851      	21111.0706    	12620   
766  	474.0930      	21092.9099    	12177   
767  	474.5008      	21074.7804    	11758   
768  	474.9087      	21056.6806    	11359   
769  	475.3166      	21038.6106    	10980   
770  	475.7245      	21020.5689    	10621   
771  	476.1325      	21002.5581    	10276   
772  	476.5405      	20984.5768    	9946    
773  	476.9485      	20966.6235    	9637    
774  	477.3566      	20948.7010    	9342    
775  	477.7647      	20930.8064    	9062    
776  	478.1728      	20912.9423    	8804    
777  	478.5810      	20895.1061    	8555    
778  	478.9891      	20877.3002    	8314    
779  	479.3974      	20859.5221    	8084    
780  	479.8056      	20841.7728    	7872    
781  	480.2139      	20824.0524    	7672    
782  	480.6222      	20806.3621    	7479    
783  	481.0306      	20788.6992    	7295    
784  	481.4390      	20771.0649    	7117    
785  	481.8474      	20753.4593    	6946    
786  	482.2558      	20735.8821    	6786    
787  	482.6643      	20718.3333    	6635    
788  	483.0728      	20700.8130    	6488    
789  	483.4814      	20683.3209    	6346    
790  	483.8899      	20665.8571    	6211    
791  	484.2985      	20648.4214    	6084    
792  	484.7072      	20631.0139    	5961    
793  	485.1158      	20613.6343    	5841    
794  	485.5245      	20596.2815    	5722    
795  	485.9333      	20578.9578    	5603    
796  	486.3420      	20561.6619    	5490    
797  	486.7508      	20544.3925    	5382    
798  	487.1596      	20527.1522    	5278    
799  	487.5685      	20509.9394    	5176    
800  	487.9774      	20492.7529    	5076    
801  	488.3863      	20475.5952    	4977    
802  	488.7953      	20458.4636    	4874    
803  	489.2042      	20441.3607    	4778    
804  	489.6133      	20424.2838    	4686    
805  	490.0223      	20407.2342    	4597    
806  	490.4314      	20390.2130    	4507    
807  	490.8405      	20373.2176    	4419    
808  	491.2496      	20356.2493    	4334    
809  	491.6588      	20339.3092    	4250    
810  	492.0680      	20322.3947    	4168    
811  	492.4772      	20305.5072    	4087    
812  	492.8865      	20288.6464    	4008    
813  	493.2958      	20271.8123    	3930    
814  	493.7051      	20255.0049    	3855    
815  	494.1145      	20238.2241    	3783    
816  	494.5239      	20221.4698    	3713    
817  	494.9333      	20204.7420    	3643    
818  	495.3428      	20188.0406    	3575    
819  	495.7523      	20171.3655    	3510    
820  	496.1618      	20154.7167    	3446    
821  	496.5713      	20138.0942    	3386    
822  	496.9809      	20121.4966    	3321    
823  	497.3905      	20104.9263    	3261    
824  	497.8002      	20088.3820    	3203    
825  	498.2098      	20071.8637    	3145    
826  	498.6196      	20055.3702    	3089    
827  	499.0293      	20038.9037    	3033    
828  	499.4391      	20022.4617    	2977    
829  	499.8489      	20006.0467    	2923    
830  	500.2587      	19989.6575    	2873    
831  	500.6686      	19973.2925    	2825    
832  	501.0785      	19956.9532    	2778    
833  	501.4884      	19940.6406    	2733    
834  	501.8984      	19924.3522    	2689    
835  	502.3083      	19908.0903    	2646    
836  	502.7184      	19891.8526    	2601    
837  	503.1284      	19875.6402    	2556    
838  	503.5385      	19859.4541    	2514    
839  	503.9486      	19843.2920    	2477    
840  	504.3588      	19827.1550    	2439    
841  	504.7690      	19811.0430    	2401    
842  	505.1792      	19794.9560    	2361    
843  	505.5894      	19778.8950    	2326    
844  	505.9997      	19762.8578    	2291    
845  	506.4100      	19746.8453    	2259    
846  	506.8203      	19730.8576    	2227    
847  	507.2307      	19714.8945    	2195    
848  	507.6411      	19698.9561    	2169    
849  	508.0515      	19683.0422    	2142    
850  	508.4620      	19667.1529    	2113    
851  	508.8725      	19651.2868    	2085    
852  	509.2831      	19635.4463    	2058    
853  	509.6936      	19619.6302    	2032    
854  	510.1042      	19603.8383    	2008    
855  	510.5148      	19588.0707    	1985    
856  	510.9255      	19572.3260    	1963    
857  	511.3362      	19556.6067    	1942    
858  	511.7469      	19540.9114    	1925    
859  	512.1576      	19525.2402    	1909    
860  	512.5684      	19509.5929    	1887    
861  	512.9792      	19493.9683    	1868    
862  	513.3900      	19478.3687    	1851    
863  	513.8009      	19462.7918    	1836    
864  	514.2118      	19447.2397    	1823    
865  	514.6227      	19431.7102    	1807    
866  	515.0337      	19416.2055    	1792    
867  	515.4447      	19400.7232    	1778    
868  	515.8557      	19385.2656    	1767    
869  	516.2668      	19369.8303    	1755    
870  	516.6779      	19354.4173    	1745    
871  	517.0890      	19339.0310    	1734    
872  	517.5002      	19323.6647    	1725    
873  	517.9114      	19308.3227    	1716    
874  	518.3226      	19293.0051    	1708    
875  	518.7338      	19277.7095    	1700    
876  	519.1451      	19262.4381    	1695    
877  	519.5564      	19247.1887    	1688    
878  	519.9678      	19231.9611    	1682    
879  	520.3791      	19216.7599    	1679    
880  	520.7905      	19201.5781    	1671    
881  	521.2020      	19186.4204    	1665    
882  	521.6134      	19171.2865    	1659    
883  	522.0249      	19156.1743    	1653    
884  	522.4365      	19141.0836    	1647    
885  	522.8480      	19126.0167    	1641    
886  	523.2596      	19110.9735    	1638    
887  	523.6712      	19095.9517    	1636    
888  	524.0829      	19080.9513    	1634    
889  	524.4946      	19065.9744    	1631    
890  	524.9063      	19051.0188    	1627    
891  	525.3181      	19036.0867    	1624    
892  	525.7298      	19021.1779    	1620    
893  	526.1416      	19006.2903    	1617    
894  	526.5535      	18991.4237    	1613    
895  	526.9653      	18976.5804    	1610    
896  	527.3773      	18961.7581    	1607    
897  	527.7892      	18946.9589    	1604    
898  	528.2012      	18932.1806    	1602    
899  	528.6132      	18917.4254    	1602    
900  	529.0251      	18902.6931    	1597    
901  	529.4373      	18887.9794    	1597    
902  	529.8493      	18873.2908    	1601    
903  	530.2615      	18858.6207    	1601    
904  	530.6736      	18843.9755    	1602    
905  	531.0858      	18829.3487    	1601    
906  	531.4980      	18814.7467    	1602    
907  	531.9103      	18800.1631    	1604    
908  	532.3225      	18785.6042    	1605    
909  	532.7349      	18771.0636    	1607    
910  	533.1472      	18756.5476    	1610    
911  	533.5596      	18742.0497    	1615    
912  	533.9719      	18727.5764    	1621    
913  	534.3844      	18713.1211    	1626    
914  	534.7969      	18698.6882    	1633    
915  	535.2094      	18684.2774    	1638    
916  	535.6219      	18669.8868    	1644    
917  	536.0344      	18655.5183    	1653    
918  	536.4470      	18641.1698    	1659    
919  	536.8596      	18626.8433    	1666    
920  	537.2723      	18612.5367    	1673    
921  	537.6850      	18598.2500    	1681    
922  	538.0977      	18583.9852    	1690    
923  	538.5104      	18569.7422    	1695    
924  	538.9232      	18555.5190    	1706    
925  	539.3360      	18541.3175    	1718    
926  	539.7488      	18527.1357    	1732    
927  	540.1617      	18512.9734    	1745    
928  	540.5746      	18498.8328    	1757    
929  	540.9875      	18484.7138    	1770    
930  	541.4005      	18470.6142    	1783    
931  	541.8135      	18456.5340    	1797    
932  	542.2266      	18442.4753    	1811    
933  	542.6396      	18428.4380    	1826    
934  	543.0527      	18414.4200    	1843    
935  	543.4658      	18400.4212    	1861    
936  	543.8790      	18386.4437    	1880    
937  	544.2921      	18372.4874    	1900    
938  	544.7054      	18358.5481    	1916    
939  	545.1186      	18344.6321    	1936    
940  	545.5319      	18330.7351    	1960    
941  	545.9452      	18316.8570    	1982    
942  	546.3585      	18303.0000    	2004    
943  	546.7719      	18289.1639    	2025    
944  	547.1853      	18275.3447    	2048    
945  	547.5987      	18261.5483    	2072    
946  	548.0121      	18247.7707    	2097    
947  	548.4257      	18234.0119    	2122    
948  	548.8392      	18220.2738    	2148    
949  	549.2527      	18206.5544    	2178    
950  	549.6663      	18192.8556    	2209    
951  	550.0800      	18179.1754    	2239    
952  	550.4936      	18165.5157    	2271    
953  	550.9072      	18151.8766    	2304    
954  	551.3210      	18138.2539    	2339    
955  	551.7347      	18124.6537    	2378    
956  	552.1484      	18111.0718    	2414    
957  	552.5623      	18097.5083    	2454    
958  	552.9761      	18083.9651    	2494    
959  	553.3900      	18070.4401    	2535    
960  	553.8038      	18056.9353    	2581    
961  	554.2178      	18043.4488    	2622    
962  	554.6317      	18029.9823    	2670    
963  	555.0457      	18016.5340    	2718    
964  	555.4597      	18003.1057    	2771    
965  	555.8738      	17989.6955    	2825    
966  	556.2878      	17976.3052    	2879    
967  	556.7020      	17962.9328    	2935    
968  	557.1161      	17949.5803    	2993    
969  	557.5303      	17936.2458    	3055    
970  	557.9445      	17922.9290    	3116    
971  	558.3587      	17909.6340    	3180    
972  	558.7730      	17896.3547    	3246    
973  	559.1873      	17883.0971    	3315    
974  	559.6016      	17869.8552    	3384    
975  	560.0160      	17856.6329    	3457    
976  	560.4304      	17843.4302    	3529    
977  	560.8448      	17830.2451    	3607    
978  	561.2592      	17817.0794    	3688    
979  	561.6737      	17803.9312    	3772    
980  	562.0882      	17790.8024    	3862    
981  	562.5027      	17777.6910    	3949    
982  	562.9174      	17764.5970    	4044    
983  	563.3319      	17751.5242    	4139    
984  	563.7466      	17738.4667    	4237    
985  	564.1613      	17725.4285    	4337    
986  	564.5759      	17712.4095    	4437    
987  	564.9907      	17699.4076    	4541    
988  	565.4054      	17686.4248    	4651    
989  	565.8202      	17673.4591    	4764    
990  	566.2350      	17660.5105    	4879    
991  	566.6499      	17647.5809    	4998    
992  	567.0648      	17634.6702    	5122    
993  	567.4797      	17621.7765    	5248    
994  	567.8946      	17608.9016    	5374    
995  	568.3096      	17596.0436    	5506    
996  	568.7246      	17583.2025    	5641    
997  	569.1396      	17570.3802    	5783    
998  	569.5547      	17557.5765    	5931    
999  	569.9698      	17544.7896    	6081    
1000 	570.3849      	17532.0213    	6233    
1001 	570.8000      	17519.2697    	6385    
1002 	571.2153      	17506.5348    	6541    
1003 	571.6305      	17493.8183    	6700    
1004 	572.0457      	17481.1204    	6866    
1005 	572.4610      	17468.4389    	7034    
1006 	572.8763      	17455.7741    	7204    
1007 	573.2917      	17443.1275    	7384    
1008 	573.7070      	17430.4993    	7566    
1009 	574.1224      	17417.8875    	7753    
1010 	574.5379      	17405.2921    	7946    
1011 	574.9534      	17392.7148    	8147    
1012 	575.3688      	17380.1558    	8350    
1013 	575.7844      	17367.6130    	8557    
1014 	576.2000      	17355.0865    	8769    
1015 	576.6155      	17342.5781    	8989    
1016 	577.0311      	17330.0876    	9212    
1017 	577.4468      	17317.6133    	9440    
1018 	577.8625      	17305.1551    	9678    
1019 	578.2782      	17292.7149    	9914    
1020 	578.6939      	17280.2925    	10155   
1021 	579.1097      	17267.8861    	10401   
1022 	579.5255      	17255.4957    	10654   
1023 	579.9413      	17243.1231    	10917   
1024 	580.3572      	17230.7682    	11180   
1025 	580.7731      	17218.4292    	11441   
1026 	581.1890      	17206.1060    	11711   
1027 	581.6050      	17193.8005    	11991   
1028 	582.0210      	17181.5107    	12277   
1029 	582.4370      	17169.2386    	12568   
1030 	582.8530      	17156.9839    	12862   
1031 	583.2691      	17144.7449    	13160   
1032 	583.6852      	17132.5216    	13458   
1033 	584.1014      	17120.3157    	13763   
1034 	584.5175      	17108.1271    	14073   
1035 	584.9337      	17095.9542    	14392   
1036 	585.3500      	17083.7967    	14719   
1037 	585.7662      	17071.6566    	15051   
1038 	586.1826      	17059.5319    	15387   
1039 	586.5989      	17047.4244    	15717   
1040 	587.0152      	17035.3341    	16048   
1041 	587.4316      	17023.2591    	16378   
1042 	587.8480      	17011.1995    	16715   
1043 	588.2645      	16999.1570    	17057   
1044 	588.6810      	16987.1297    	17406   
1045 	589.0975      	16975.1195    	17772   
1046 	589.5140      	16963.1262    	18146   
1047 	589.9305      	16951.1481    	18526   
1048 	590.3472      	16939.1852    	18908   
1049 	590.7638      	16927.2391    	19295   
1050 	591.1804      	16915.3099    	19688   
1051 	591.5972      	16903.3940    	20077   
1052 	592.0139      	16891.4966    	20461   
1053 	592.4306      	16879.6142    	20846   
1054 	592.8474      	16867.7467    	21234   
1055 	593.2642      	16855.8960    	21624   
1056 	593.6810      	16844.0619    	22014   
1057 	594.0980      	16832.2409    	22408   
1058 	594.5148      	16820.4382    	22813   
1059 	594.9318      	16808.6504    	23216   
1060 	595.3488      	16796.8773    	23623   
1061 	595.7657      	16785.1207    	24045   
1062 	596.1827      	16773.3806    	24480   
1063 	596.5999      	16761.6535    	24920   
1064 	597.0169      	16749.9444    	25355   
1065 	597.4340      	16738.2500    	25774   
1066 	597.8512      	16726.5702    	26182   
1067 	598.2684      	16714.9067    	26597   
1068 	598.6855      	16703.2594    	27015   
1069 	599.1028      	16691.6250    	27439   
1070 	599.5201      	16680.0084    	27866   
1071 	599.9374      	16668.4064    	28295   
1072 	600.3547      	16656.8187    	28734   
1073 	600.7721      	16645.2472    	29187   
1074 	601.1895      	16633.6917    	29650   
1075 	601.6069      	16622.1505    	30101   
1076 	602.0244      	16610.6237    	30545   
1077 	602.4418      	16599.1129    	30979   
1078 	602.8594      	16587.6163    	31406   
1079 	603.2769      	16576.1356    	31819   
1080 	603.6945      	16564.6709    	32232   
1081 	604.1121      	16553.2203    	32653   
1082 	604.5297      	16541.7838    	33061   
1083 	604.9474      	16530.3631    	33466   
1084 	605.3651      	16518.9566    	33865   
1085 	605.7828      	16507.5657    	34276   
1086 	606.2006      	16496.1906    	34701   
1087 	606.6183      	16484.8295    	35132   
1088 	607.0362      	16473.4823    	35557   
1089 	607.4540      	16462.1508    	35971   
1090 	607.8719      	16450.8348    	36380   
1091 	608.2898      	16439.5327    	36777   
1092 	608.7078      	16428.2445    	37168   
1093 	609.1257      	16416.9718    	37557   
1094 	609.5438      	16405.7130    	37936   
1095 	609.9618      	16394.4695    	38312   
1096 	610.3798      	16383.2415    	38703   
1097 	610.7979      	16372.0271    	39109   
1098 	611.2161      	16360.8265    	39525   
1099 	611.6342      	16349.6412    	39935   
1100 	612.0524      	16338.4712    	40347   
1101 	612.4706      	16327.3148    	40759   
1102 	612.8889      	16316.1720    	41144   
1103 	613.3071      	16305.0445    	41528   
1104 	613.7254      	16293.9320    	41915   
1105 	614.1437      	16282.8331    	42293   
1106 	614.5621      	16271.7477    	42669   
1107 	614.9805      	16260.6774    	43043   
1108 	615.3989      	16249.6221    	43407   
1109 	615.8174      	16238.5803    	43772   
1110 	616.2359      	16227.5518    	44143   
1111 	616.6544      	16216.5383    	44504   
1112 	617.0729      	16205.5397    	44849   
1113 	617.4915      	16194.5545    	45188   
1114 	617.9102      	16183.5825    	45532   
1115 	618.3288      	16172.6254    	45862   
1116 	618.7474      	16161.6831    	46176   
1117 	619.1661      	16150.7540    	46475   
1118 	619.5849      	16139.8381    	46751   
1119 	620.0037      	16128.9370    	47015   
1120 	620.4224      	16118.0506    	47270   
1121 	620.8412      	16107.1772    	47517   
1122 	621.2601      	16096.3170    	47757   
1123 	621.6790      	16085.4713    	47989   
1124 	622.0979      	16074.6403    	48197   
1125 	622.5168      	16063.8223    	48383   
1126 	622.9358      	16053.0189    	48569   
1127 	623.3548      	16042.2283    	48745   
1128 	623.7739      	16031.4508    	48910   
1129 	624.1929      	16020.6877    	49085   
1130 	624.6120      	16009.9390    	49242   
1131 	625.0311      	15999.2032    	49377   
1132 	625.4503      	15988.4817    	49520   
1133 	625.8694      	15977.7731    	49666   
1134 	626.2887      	15967.0773    	49796   
1135 	626.7079      	15956.3957    	49903   
1136 	627.1272      	15945.7285    	50009   
1137 	627.5465      	15935.0739    	50098   
1138 	627.9658      	15924.4336    	50182   
1139 	628.3852      	15913.8059    	50263   
1140 	628.8046      	15903.1909    	50335   
1141 	629.2240      	15892.5915    	50421   
1142 	629.6435      	15882.0032    	50495   
1143 	630.0630      	15871.4290    	50535   
1144 	630.4825      	15860.8689    	50568   
1145 	630.9020      	15850.3213    	50614   
1146 	631.3216      	15839.7877    	50647   
1147 	631.7412      	15829.2665    	50660   
1148 	632.1608      	15818.7593    	50651   
1149 	632.5805      	15808.2646    	50620   
1150 	633.0002      	15797.7837    	50575   
1151 	633.4199      	15787.3153    	50532   
1152 	633.8397      	15776.8606    	50512   
1153 	634.2595      	15766.4184    	50480   
1154 	634.6793      	15755.9884    	50455   
1155 	635.0991      	15745.5737    	50455   
1156 	635.5190      	15735.1697    	50462   
1157 	635.9389      	15724.7810    	50509   
1158 	636.3589      	15714.4030    	50598   
1159 	636.7788      	15704.0402    	50699   
1160 	637.1989      	15693.6880    	50812   
1161 	637.6188      	15683.3510    	50935   
1162 	638.0389      	15673.0246    	51044   
1163 	638.4590      	15662.7133    	51170   
1164 	638.8791      	15652.4140    	51333   
1165 	639.2993      	15642.1268    	51534   
1166 	639.7194      	15631.8531    	51756   
1167 	640.1396      	15621.5914    	52009   
1168 	640.5599      	15611.3431    	52282   
1169 	640.9802      	15601.1068    	52555   
1170 	641.4005      	15590.8839    	52847   
1171 	641.8208      	15580.6730    	53148   
1172 	642.2411      	15570.4754    	53453   
1173 	642.6616      	15560.2896    	53729   
1174 	643.0820      	15550.1172    	54008   
1175 	643.5024      	15539.9581    	54266   
1176 	643.9229      	15529.8107    	54486   
1177 	644.3434      	15519.6751    	54691   
1178 	644.7639      	15509.5528    	54851   
1179 	645.1845      	15499.4422    	54971   
1180 	645.6051      	15489.3447    	55051   
1181 	646.0257      	15479.2604    	55102   
1182 	646.4464      	15469.1864    	55131   
1183 	646.8671      	15459.1268    	55130   
1184 	647.2878      	15449.0789    	55104   
1185 	647.7086      	15439.0426    	55053   
1186 	648.1293      	15429.0193    	54964   
1187 	648.5501      	15419.0090    	54827   
1188 	648.9709      	15409.0103    	54647   
1189 	649.3918      	15399.0230    	54426   
1190 	649.8127      	15389.0488    	54195   
1191 	650.2336      	15379.0874    	53950   
1192 	650.6546      	15369.1374    	53677   
1193 	651.0756      	15359.1989    	53383   
1194 	651.4966      	15349.2733    	53078   
1195 	651.9177      	15339.3604    	52764   
1196 	652.3387      	15329.4589    	52437   
1197 	652.7599      	15319.5688    	52107   
1198 	653.1810      	15309.6914    	51766   
1199 	653.6022      	15299.8267    	51413   
1200 	654.0234      	15289.9734    	51048   
1201 	654.4446      	15280.1327    	50695   
1202 	654.8658      	15270.3032    	50347   
1203 	655.2872      	15260.4849    	49988   
1204 	655.7084      	15250.6807    	49637   
1205 	656.1298      	15240.8863    	49293   
1206 	656.5512      	15231.1044    	48934   
1207 	656.9726      	15221.3351    	48577   
1208 	657.3940      	15211.5768    	48231   
1209 	657.8155      	15201.8311    	47875   
1210 	658.2370      	15192.0965    	47545   
1211 	658.6585      	15182.3743    	47218   
1212 	659.0801      	15172.6631    	46867   
1213 	659.5016      	15162.9644    	46504   
1214 	659.9233      	15153.2766    	46132   
1215 	660.3449      	15143.6013    	45766   
1216 	660.7666      	15133.9368    	45388   
1217 	661.1883      	15124.2847    	45030   
1218 	661.6100      	15114.6435    	44688   
1219 	662.0318      	15105.0146    	44342   
1220 	662.4536      	15095.3966    	44003   
1221 	662.8754      	15085.7908    	43665   
1222 	663.2973      	15076.1958    	43325   
1223 	663.7192      	15066.6130    	42982   
1224 	664.1411      	15057.0410    	42642   
1225 	664.5630      	15047.4812    	42309   
1226 	664.9850      	15037.9321    	41976   
1227 	665.4070      	15028.3952    	41653   
1228 	665.8290      	15018.8703    	41324   
1229 	666.2511      	15009.3561    	40996   
1230 	666.6732      	14999.8526    	40679   
1231 	667.0953      	14990.3611    	40347   
1232 	667.5175      	14980.8803    	40016   
1233 	667.9397      	14971.4114    	39701   
1234 	668.3619      	14961.9545    	39405   
1235 	668.7841      	14952.5082    	39101   
1236 	669.2064      	14943.0724    	38782   
1237 	669.6287      	14933.6485    	38463   
1238 	670.0510      	14924.2365    	38129   
1239 	670.4734      	14914.8351    	37790   
1240 	670.8958      	14905.4440    	37462   
1241 	671.3182      	14896.0649    	37135   
1242 	671.7407      	14886.6975    	36811   
1243 	672.1631      	14877.3405    	36484   
1244 	672.5857      	14867.9939    	36157   
1245 	673.0082      	14858.6591    	35829   
1246 	673.4308      	14849.3360    	35495   
1247 	673.8534      	14840.0232    	35163   
1248 	674.2760      	14830.7221    	34834   
1249 	674.6987      	14821.4313    	34509   
1250 	675.1213      	14812.1522    	34180   
1251 	675.5441      	14802.8833    	33851   
1252 	675.9669      	14793.6247    	33516   
1253 	676.3896      	14784.3790    	33186   
1254 	676.8124      	14775.1422    	32858   
1255 	677.2352      	14765.9182    	32515   
1256 	677.6581      	14756.7031    	32184   
1257 	678.0810      	14747.5008    	31870   
1258 	678.5040      	14738.3073    	31559   
1259 	678.9269      	14729.1267    	31258   
1260 	679.3499      	14719.9547    	30961   
1261 	679.7729      	14710.7956    	30641   
1262 	680.1960      	14701.6452    	30312   
1263 	680.6190      	14692.5074    	29992   
1264 	681.0421      	14683.3798    	29677   
1265 	681.4653      	14674.2621    	29364   
1266 	681.8884      	14665.1558    	29053   
1267 	682.3116      	14656.0594    	28746   
1268 	682.7349      	14646.9743    	28440   
1269 	683.1581      	14637.9005    	28137   
1270 	683.5814      	14628.8366    	27834   
1271 	684.0047      	14619.7826    	27533   
1272 	684.4280      	14610.7398    	27237   
1273 	684.8514      	14601.7069    	26959   
1274 	685.2748      	14592.6851    	26675   
1275 	685.6982      	14583.6745    	26392   
1276 	686.1217      	14574.6738    	26116   
1277 	686.5452      	14565.6828    	25835   
1278 	686.9688      	14556.7029    	25559   
1279 	687.3923      	14547.7341    	25287   
1280 	687.8159      	14538.7750    	25006   
1281 	688.2394      	14529.8270    	24717   
1282 	688.6631      	14520.8887    	24446   
1283 	689.0868      	14511.9601    	24186   
1284 	689.5104      	14503.0437    	23923   
1285 	689.9342      	14494.1357    	23657   
1286 	690.3580      	14485.2387    	23400   
1287 	690.7817      	14476.3526    	23150   
1288 	691.2056      	14467.4761    	22891   
1289 	691.6294      	14458.6105    	22627   
1290 	692.0533      	14449.7544    	22360   
1291 	692.4772      	14440.9092    	22095   
1292 	692.9011      	14432.0736    	21830   
1293 	693.3251      	14423.2488    	21569   
1294 	693.7491      	14414.4334    	21307   
1295 	694.1731      	14405.6289    	21054   
1296 	694.5972      	14396.8338    	20800   
1297 	695.0212      	14388.0495    	20541   
1298 	695.4453      	14379.2759    	20299   
1299 	695.8695      	14370.5104    	20052   
1300 	696.2936      	14361.7569    	19802   
1301 	696.7178      	14353.0128    	19556   
1302 	697.1421      	14344.2781    	19313   
1303 	697.5663      	14335.5540    	19068   
1304 	697.9906      	14326.8405    	18814   
1305 	698.4149      	14318.1363    	18564   
1306 	698.8393      	14309.4415    	18324   
1307 	699.2637      	14300.7572    	18087   
1308 	699.6880      	14292.0835    	17852   
1309 	700.1125      	14283.4190    	17627   
1310 	700.5370      	14274.7638    	17405   
1311 	700.9615      	14266.1190    	17184   
1312 	701.3860      	14257.4847    	16965   
1313 	701.8105      	14248.8597    	16754   
1314 	702.2351      	14240.2450    	16546   
1315 	702.6597      	14231.6396    	16341   
1316 	703.0844      	14223.0433    	16135   
1317 	703.5090      	14214.4586    	15930   
1318 	703.9338      	14205.8818    	15734   
1319 	704.3585      	14197.3165    	15530   
1320 	704.7833      	14188.7592    	15330   
1321 	705.2080      	14180.2133    	15134   
1322 	705.6329      	14171.6753    	14940   
1323 	706.0577      	14163.1489    	14750   
1324 	706.4826      	14154.6302    	14566   
1325 	706.9075      	14146.1230    	14392   
1326 	707.3324      	14137.6247    	14217   
1327 	707.7574      	14129.1355    	14034   
1328 	708.1824      	14120.6565    	13847   
1329 	708.6074      	14112.1864    	13667   
1330 	709.0325      	14103.7264    	13491   
1331 	709.4575      	14095.2766    	13319   
1332 	709.8826      	14086.8357    	13142   
1333 	710.3078      	14078.4038    	12968   
1334 	710.7330      	14069.9818    	12795   
1335 	711.1581      	14061.5700    	12623   
1336 	711.5834      	14053.1670    	12454   
1337 	712.0087      	14044.7729    	12277   
1338 	712.4340      	14036.3887    	12106   
1339 	712.8593      	14028.0146    	11942   
1340 	713.2846      	14019.6492    	11783   
1341 	713.7100      	14011.2939    	11622   
1342 	714.1354      	14002.9473    	11462   
1343 	714.5609      	13994.6094    	11303   
1344 	714.9863      	13986.2826    	11148   
1345 	715.4118      	13977.9634    	10996   
1346 	715.8373      	13969.6540    	10847   
1347 	716.2629      	13961.3546    	10706   
1348 	716.6885      	13953.0637    	10566   
1349 	717.1141      	13944.7828    	10425   
1350 	717.5397      	13936.5116    	10283   
1351 	717.9654      	13928.2479    	10142   
1352 	718.3911      	13919.9952    	10001   
1353 	718.8168      	13911.7511    	9867    
1354 	719.2426      	13903.5155    	9739    
1355 	719.6683      	13895.2897    	9610    
1356 	720.0942      	13887.0724    	9481    
1357 	720.5200      	13878.8649    	9347    
1358 	720.9459      	13870.6670    	9221    
1359 	721.3718      	13862.4777    	9098    
1360 	721.7977      	13854.2968    	8974    
1361 	722.2237      	13846.1256    	8848    
1362 	722.6497      	13837.9641    	8721    
1363 	723.0757      	13829.8109    	8594    
1364 	723.5018      	13821.6663    	8466    
1365 	723.9278      	13813.5323    	8341    
1366 	724.3539      	13805.4056    	8215    
1367 	724.7801      	13797.2885    	8086    
1368 	725.2062      	13789.1809    	7953    
1369 	725.6324      	13781.0817    	7822    
1370 	726.0587      	13772.9919    	7693    
1371 	726.4849      	13764.9106    	7564    
1372 	726.9112      	13756.8386    	7436    
1373 	727.3375      	13748.7750    	7314    
1374 	727.7639      	13740.7209    	7195    
1375 	728.1902      	13732.6750    	7075    
1376 	728.6166      	13724.6385    	6959    
1377 	729.0430      	13716.6115    	6848    
1378 	729.4695      	13708.5915    	6741    
1379 	729.8960      	13700.5821    	6641    
1380 	730.3225      	13692.5808    	6540    
1381 	730.7491      	13684.5878    	6439    
1382 	731.1757      	13676.6041    	6342    
1383 	731.6022      	13668.6297    	6252    
1384 	732.0289      	13660.6634    	6166    
1385 	732.4556      	13652.7053    	6084    
1386 	732.8823      	13644.7565    	6003    
1387 	733.3090      	13636.8169    	5927    
1388 	733.7357      	13628.8854    	5855    
1389 	734.1625      	13620.9631    	5787    
1390 	734.5893      	13613.0489    	5724    
1391 	735.0161      	13605.1439    	5663    
1392 	735.4430      	13597.2470    	5607    
1393 	735.8699      	13589.3592    	5555    
1394 	736.2968      	13581.4794    	5511    
1395 	736.7238      	13573.6087    	5464    
1396 	737.1508      	13565.7461    	5418    
1397 	737.5778      	13557.8925    	5377    
1398 	738.0048      	13550.0470    	5335    
1399 	738.4319      	13542.2105    	5296    
1400 	738.8590      	13534.3819    	5255    
1401 	739.2861      	13526.5624    	5216    
1402 	739.7133      	13518.7519    	5180    
1403 	740.1404      	13510.9493    	5145    
1404 	740.5677      	13503.1546    	5109    
1405 	740.9949      	13495.3689    	5073    
1406 	741.4222      	13487.5922    	5035    
1407 	741.8495      	13479.8233    	4996    
1408 	742.2769      	13472.0622    	4956    
1409 	742.7042      	13464.3101    	4916    
1410 	743.1316      	13456.5669    	4876    
1411 	743.5590      	13448.8315    	4832    
1412 	743.9865      	13441.1050    	4786    
1413 	744.4139      	13433.3863    	4739    
1414 	744.8414      	13425.6764    	4689    
1415 	745.2690      	13417.9742    	4630    
1416 	745.6965      	13410.2809    	4576    
1417 	746.1241      	13402.5953    	4525    
1418 	746.5518      	13394.9186    	4469    
1419 	746.9794      	13387.2495    	4412    
1420 	747.4071      	13379.5892    	4354    
1421 	747.8348      	13371.9365    	4296    
1422 	748.2626      	13364.2926    	4241    
1423 	748.6903      	13356.6575    	4184    
1424 	749.1181      	13349.0300    	4129    
1425 	749.5460      	13341.4101    	4076    
1426 	749.9738      	13333.7988    	4023    
1427 	750.4017      	13326.1963    	3971    
1428 	750.8296      	13318.6014    	3922    
1429 	751.2575      	13311.0151    	3877    
1430 	751.6855      	13303.4363    	3830    
1431 	752.1135      	13295.8651    	3784    
1432 	752.5415      	13288.3036    	3744    
1433 	752.9696      	13280.7486    	3704    
1434 	753.3977      	13273.2021    	3664    
1435 	753.8258      	13265.6642    	3622    
1436 	754.2540      	13258.1338    	3581    
1437 	754.6821      	13250.6119    	3540    
1438 	755.1103      	13243.0986    	3496    
1439 	755.5386      	13235.5916    	3459    
1440 	755.9668      	13228.0942    	3423    
1441 	756.3951      	13220.6042    	3390    
1442 	756.8234      	13213.1217    	3356    
1443 	757.2518      	13205.6476    	3321    
1444 	757.6801      	13198.1819    	3288    
1445 	758.1085      	13190.7237    	3254    
1446 	758.5370      	13183.2728    	3219    
1447 	758.9655      	13175.8303    	3185    
1448 	759.3939      	13168.3962    	3151    
1449 	759.8224      	13160.9694    	3118    
1450 	760.2510      	13153.5510    	3086    
1451 	760.6796      	13146.1399    	3056    
1452 	761.1082      	13138.7372    	3026    
1453 	761.5368      	13131.3417    	2994    
1454 	761.9655      	13123.9546    	2964    
1455 	762.3942      	13116.5747    	2938    
1456 	762.8229      	13109.2031    	2911    
1457 	763.2516      	13101.8387    	2884    
1458 	763.6804      	13094.4826    	2858    
1459 	764.1093      	13087.1338    	2831    
1460 	764.5381      	13079.7931    	2804    
1461 	764.9669      	13072.4607    	2776    
1462 	765.3958      	13065.1355    	2748    
1463 	765.8248      	13057.8174    	2720    
1464 	766.2537      	13050.5076    	2693    
1465 	766.6827      	13043.2059    	2665    
1466 	767.1117      	13035.9113    	2639    
1467 	767.5408      	13028.6238    	2614    
1468 	767.9698      	13021.3445    	2591    
1469 	768.3989      	13014.0734    	2568    
1470 	768.8281      	13006.8093    	2545    
1471 	769.2572      	12999.5533    	2521    
1472 	769.6864      	12992.3044    	2497    
1473 	770.1156      	12985.0635    	2472    
1474 	770.5449      	12977.8297    	2449    
1475 	770.9741      	12970.6040    	2429    
1476 	771.4034      	12963.3863    	2403    
1477 	771.8327      	12956.1756    	2381    
1478 	772.2621      	12948.9719    	2360    
1479 	772.6915      	12941.7761    	2339    
1480 	773.1209      	12934.5874    	2318    
1481 	773.5504      	12927.4067    	2297    
1482 	773.9798      	12920.2339    	2278    
1483 	774.4093      	12913.0680    	2259    
1484 	774.8388      	12905.9101    	2242    
1485 	775.2684      	12898.7591    	2224    
1486 	775.6980      	12891.6151    	2206    
1487 	776.1276      	12884.4799    	2189    
1488 	776.5573      	12877.3506    	2172    
1489 	776.9869      	12870.2302    	2153    
1490 	777.4166      	12863.1157    	2136    
1491 	777.8463      	12856.0100    	2120    
1492 	778.2761      	12848.9112    	2104    
1493 	778.7059      	12841.8192    	2088    
1494 	779.1357      	12834.7350    	2073    
1495 	779.5656      	12827.6576    	2060    
1496 	779.9954      	12820.5881    	2041    
1497 	780.4253      	12813.5263    	2026    
1498 	780.8552      	12806.4713    	2012    
1499 	781.2852      	12799.4230    	1997    
1500 	781.7152      	12792.3825    	1984    
1501 	782.1452      	12785.3498    	1970    
1502 	782.5753      	12778.3238    	1957    
1503 	783.0053      	12771.3055    	1943    
1504 	783.4354      	12764.2939    	1930    
1505 	783.8655      	12757.2900    	1917    
1506 	784.2957      	12750.2928    	1904    
1507 	784.7259      	12743.3033    	1890    
1508 	785.1561      	12736.3204    	1878    
1509 	785.5864      	12729.3452    	1866    
1510 	786.0167      	12722.3766    	1857    
1511 	786.4470      	12715.4157    	1845    
1512 	786.8773      	12708.4623    	1835    
1513 	787.3076      	12701.5156    	1827    
1514 	787.7380      	12694.5755    	1817    
1515 	788.1685      	12687.6430    	1805    
1516 	788.5989      	12680.7180    	1790    
1517 	789.0294      	12673.7996    	1779    
1518 	789.4598      	12666.8888    	1767    
1519 	789.8904      	12659.9845    	1756    
1520 	790.3210      	12653.0868    	1746    
1521 	790.7515      	12646.1975    	1735    
1522 	791.1822      	12639.3138    	1726    
1523 	791.6128      	12632.4386    	1717    
1524 	792.0435      	12625.5699    	1707    
1525 	792.4742      	12618.7076    	1698    
1526 	792.9049      	12611.8528    	1689    
1527 	793.3357      	12605.0045    	1679    
1528 	793.7665      	12598.1636    	1670    
1529 	794.1973      	12591.3302    	1661    
1530 	794.6281      	12584.5032    	1652    
1531 	795.0590      	12577.6826    	1642    
1532 	795.4899      	12570.8694    	1635    
1533 	795.9208      	12564.0636    	1630    
1534 	796.3518      	12557.2642    	1619    
1535 	796.7828      	12550.4721    	1612    
1536 	797.2138      	12543.6864    	1606    
1537 	797.6448      	12536.9081    	1599    
1538 	798.0759      	12530.1361    	1592    
1539 	798.5070      	12523.3714    	1584    
1540 	798.9382      	12516.6131    	1575    
1541 	799.3693      	12509.8621    	1568    
1542 	799.8005      	12503.1174    	1562    
1543 	800.2318      	12496.3799    	1555    
1544 	800.6630      	12489.6498    	1551    
1545 	801.0942      	12482.9259    	1545    
1546 	801.5256      	12476.2083    	1538    
1547 	801.9568      	12469.4989    	1532    
1548 	802.3882      	12462.7947    	1529    
1549 	802.8196      	12456.0978    	1524    
1550 	803.2510      	12449.4081    	1519    
1551 	803.6825      	12442.7247    	1512    
1552 	804.1140      	12436.0484    	1507    
1553 	804.5455      	12429.3783    	1504    
1554 	804.9770      	12422.7153    	1496    
1555 	805.4086      	12416.0586    	1492    
1556 	805.8401      	12409.4090    	1487    
1557 	806.2717      	12402.7665    	1482    
1558 	806.7034      	12396.1302    	1479    
1559 	807.1351      	12389.5000    	1475    
1560 	807.5668      	12382.8770    	1474    
1561 	807.9985      	12376.2610    	1470    
1562 	808.4302      	12369.6511    	1467    
1563 	808.8621      	12363.0474    	1463    
1564 	809.2938      	12356.4517    	1460    
1565 	809.7257      	12349.8611    	1455    
1566 	810.1575      	12343.2784    	1452    
1567 	810.5895      	12336.7010    	1450    
1568 	811.0214      	12330.1314    	1447    
1569 	811.4534      	12323.5670    	1443    
1570 	811.8853      	12317.0106    	1439    
1571 	812.3173      	12310.4601    	1437    
1572 	812.7494      	12303.9157    	1435    
1573 	813.1815      	12297.3783    	1432    
1574 	813.6135      	12290.8478    	1425    
1575 	814.0457      	12284.3233    	1422    
1576 	814.4778      	12277.8048    	1422    
1577 	814.9100      	12271.2932    	1419    
1578 	815.3422      	12264.7886    	1417    
1579 	815.7745      	12258.2899    	1413    
1580 	816.2067      	12251.7981    	1409    
1581 	816.6390      	12245.3122    	1408    
1582 	817.0714      	12238.8332    	1407    
1583 	817.5037      	12232.3602    	1406    
1584 	817.9361      	12225.8940    	1403    
1585 	818.3685      	12219.4346    	1400    
1586 	818.8009      	12212.9812    	1398    
1587 	819.2334      	12206.5336    	1395    
1588 	819.6659      	12200.0928    	1392    
1589 	820.0984      	12193.6589    	1389    
1590 	820.5309      	12187.2308    	1388    
1591 	820.9636      	12180.8086    	1389    
1592 	821.3961      	12174.3940    	1386    
1593 	821.8288      	12167.9844    	1385    
1594 	822.2614      	12161.5825    	1383    
1595 	822.6942      	12155.1855    	1382    
1596 	823.1268      	12148.7961    	1379    
1597 	823.5596      	12142.4116    	1373    
1598 	823.9924      	12136.0347    	1370    
1599 	824.4252      	12129.6636    	1368    
1600 	824.8580      	12123.2983    	1368    
1601 	825.2909      	12116.9397    	1368    
1602 	825.7238      	12110.5878    	1367    
1603 	826.1567      	12104.2416    	1365    
1604 	826.5897      	12097.9011    	1362    
1605 	827.0226      	12091.5682    	1360    
1606 	827.4556      	12085.2402    	1358    
1607 	827.8887      	12078.9187    	1356    
1608 	828.3217      	12072.6039    	1353    
1609 	828.7548      	12066.2957    	1352    
1610 	829.1879      	12059.9923    	1351    
1611 	829.6210      	12053.6963    	1349    
1612 	830.0542      	12047.4061    	1343    
1613 	830.4874      	12041.1215    	1341    
1614 	830.9207      	12034.8435    	1342    
1615 	831.3539      	12028.5720    	1340    
1616 	831.7872      	12022.3061    	1339    
1617 	832.2205      	12016.0459    	1336    
1618 	832.6539      	12009.7923    	1332    
1619 	833.0872      	12003.5451    	1329    
1620 	833.5206      	11997.3035    	1326    
1621 	833.9540      	11991.0685    	1323    
1622 	834.3875      	11984.8390    	1320    
1623 	834.8210      	11978.6160    	1317    
1624 	835.2545      	11972.3995    	1315    
1625 	835.6880      	11966.1885    	1314    
1626 	836.1216      	11959.9831    	1312    
1627 	836.5552      	11953.7841    	1310    
1628 	836.9888      	11947.5916    	1308    
1629 	837.4224      	11941.4046    	1306    
1630 	837.8561      	11935.2231    	1303    
1631 	838.2899      	11929.0481    	1301    
1632 	838.7236      	11922.8794    	1298    
1633 	839.1573      	11916.7162    	1297    
1634 	839.5911      	11910.5594    	1298    
1635 	840.0250      	11904.4081    	1293    
1636 	840.4588      	11898.2632    	1292    
1637 	840.8926      	11892.1246    	1291    
1638 	841.3266      	11885.9905    	1292    
1639 	841.7605      	11879.8637    	1292    
1640 	842.1945      	11873.7423    	1291    
1641 	842.6285      	11867.6264    	1291    
1642 	843.0624      	11861.5177    	1289    
1643 	843.4965      	11855.4134    	1288    
1644 	843.9306      	11849.3155    	1286    
1645 	844.3647      	11843.2239    	1285    
1646 	844.7988      	11837.1376    	1283    
1647 	845.2330      	11831.0576    	1282    
1648 	845.6672      	11824.9830    	1280    
1649 	846.1014      	11818.9147    	1280    
1650 	846.5356      	11812.8525    	1279    
1651 	846.9698      	11806.7957    	1279    
1652 	847.4042      	11800.7443    	1278    
1653 	847.8385      	11794.6991    	1278    
1654 	848.2728      	11788.6601    	1278    
1655 	848.7072      	11782.6264    	1274    
1656 	849.1416      	11776.5988    	1273    
1657 	849.5760      	11770.5766    	1271    
1658 	850.0106      	11764.5597    	1269    
1659 	850.4450      	11758.5498    	1268    
1660 	850.8795      	11752.5452    	1267    
1661 	851.3141      	11746.5459    	1266    
1662 	851.7487      	11740.5527    	1265    
1663 	852.1833      	11734.5648    	1266    
1664 	852.6179      	11728.5830    	1266    
1665 	853.0526      	11722.6072    	1267    
1666 	853.4872      	11716.6367    	1266    
1667 	853.9220      	11710.6715    	1266    
1668 	854.3567      	11704.7132    	1265    
1669 	854.7915      	11698.7592    	1265    
1670 	855.2263      	11692.8122    	1264    
1671 	855.6611      	11686.8695    	1264    
1672 	856.0959      	11680.9337    	1266    
1673 	856.5308      	11675.0031    	1266    
1674 	856.9658      	11669.0777    	1267    
1675 	857.4007      	11663.1583    	1265    
1676 	857.8357      	11657.2440    	1266    
1677 	858.2707      	11651.3358    	1265    
1678 	858.7057      	11645.4335    	1265    
1679 	859.1407      	11639.5364    	1267    
1680 	859.5758      	11633.6453    	1266    
1681 	860.0109      	11627.7593    	1268    
1682 	860.4460      	11621.8792    	1270    
1683 	860.8812      	11616.0043    	1272    
1684 	861.3164      	11610.1353    	1273    
1685 	861.7516      	11604.2714    	1272    
1686 	862.1869      	11598.4134    	1273    
1687 	862.6221      	11592.5614    	1274    
1688 	863.0574      	11586.7144    	1275    
1689 	863.4928      	11580.8725    	1275    
1690 	863.9282      	11575.0365    	1276    
1691 	864.3635      	11569.2064    	1279    
1692 	864.7990      	11563.3813    	1282    
1693 	865.2344      	11557.5621    	1281    
1694 	865.6699      	11551.7479    	1283    
1695 	866.1053      	11545.9396    	1284    
1696 	866.5409      	11540.1363    	1285    
1697 	866.9764      	11534.3388    	1288    
1698 	867.4120      	11528.5472    	1289    
1699 	867.8476      	11522.7605    	1290    
1700 	868.2833      	11516.9789    	1289    
1701 	868.7189      	11511.2030    	1290    
1702 	869.1546      	11505.4330    	1290    
1703 	869.5903      	11499.6679    	1290    
1704 	870.0261      	11493.9086    	1290    
1705 	870.4619      	11488.1542    	1290    
1706 	870.8976      	11482.4056    	1292    
1707 	871.3335      	11476.6620    	1294    
1708 	871.7693      	11470.9241    	1294    
1709 	872.2053      	11465.1911    	1296    
1710 	872.6412      	11459.4639    	1297    
1711 	873.0771      	11453.7423    	1298    
1712 	873.5131      	11448.0257    	1300    
1713 	873.9490      	11442.3148    	1298    
1714 	874.3851      	11436.6088    	1299    
1715 	874.8212      	11430.9077    	1299    
1716 	875.2572      	11425.2130    	1301    
1717 	875.6934      	11419.5225    	1304    
1718 	876.1295      	11413.8384    	1308    
1719 	876.5656      	11408.1591    	1315    
1720 	877.0018      	11402.4847    	1324    
1721 	877.4380      	11396.8160    	1335    
1722 	877.8743      	11391.1529    	1347    
1723 	878.3105      	11385.4946    	1359    
1724 	878.7469      	11379.8412    	1374    
1725 	879.1832      	11374.1933    	1391    
1726 	879.6196      	11368.5511    	1410    
1727 	880.0560      	11362.9137    	1432    
1728 	880.4924      	11357.2818    	1455    
1729 	880.9288      	11351.6556    	1482    
1730 	881.3653      	11346.0333    	1508    
1731 	881.8018      	11340.4174    	1536    
1732 	882.2383      	11334.8063    	1564    
1733 	882.6749      	11329.1999    	1591    
1734 	883.1115      	11323.5991    	1618    
1735 	883.5480      	11318.0038    	1644    
1736 	883.9847      	11312.4132    	1669    
1737 	884.4213      	11306.8282    	1691    
1738 	884.8580      	11301.2479    	1709    
1739 	885.2947      	11295.6731    	1724    
1740 	885.7315      	11290.1031    	1734    
1741 	886.1683      	11284.5385    	1740    
1742 	886.6050      	11278.9794    	1743    
1743 	887.0419      	11273.4250    	1742    
1744 	887.4788      	11267.8753    	1739    
1745 	887.9156      	11262.3311    	1732    
1746 	888.3525      	11256.7923    	1721    
1747 	888.7895      	11251.2582    	1707    
1748 	889.2264      	11245.7295    	1689    
1749 	889.6635      	11240.2055    	1670    
1750 	890.1005      	11234.6869    	1649    
1751 	890.5375      	11229.1729    	1625    
1752 	890.9746      	11223.6644    	1601    
1753 	891.4117      	11218.1613    	1575    
1754 	891.8488      	11212.6628    	1549    
1755 	892.2860      	11207.1689    	1526    
1756 	892.7232      	11201.6804    	1502    
1757 	893.1604      	11196.1972    	1479    
1758 	893.5977      	11190.7187    	1458    
1759 	894.0349      	11185.2455    	1440    
1760 	894.4722      	11179.7769    	1423    
1761 	894.9095      	11174.3137    	1410    
1762 	895.3469      	11168.8558    	1400    
1763 	895.7842      	11163.4025    	1391    
1764 	896.2217      	11157.9537    	1384    
1765 	896.6591      	11152.5102    	1379    
1766 	897.0966      	11147.0721    	1375    
1767 	897.5341      	11141.6385    	1373    
1768 	897.9716      	11136.2102    	1370    
1769 	898.4091      	11130.7864    	1368    
1770 	898.8467      	11125.3679    	1365    
1771 	899.2843      	11119.9539    	1362    
1772 	899.7219      	11114.5452    	1359    
1773 	900.1596      	11109.1410    	1359    
1774 	900.5973      	11103.7421    	1360    
1775 	901.0350      	11098.3483    	1359    
1776 	901.4727      	11092.9591    	1357    
1777 	901.9105      	11087.5751    	1356    
1778 	902.3483      	11082.1956    	1354    
1779 	902.7861      	11076.8213    	1353    
1780 	903.2239      	11071.4515    	1351    
1781 	903.6618      	11066.0868    	1350    
1782 	904.0997      	11060.7267    	1348    
1783 	904.5377      	11055.3717    	1345    
1784 	904.9756      	11050.0211    	1343    
1785 	905.4136      	11044.6757    	1340    
1786 	905.8516      	11039.3355    	1338    
1787 	906.2897      	11033.9997    	1335    
1788 	906.7277      	11028.6691    	1333    
1789 	907.1658      	11023.3429    	1330    
1790 	907.6039      	11018.0218    	1330    
1791 	908.0421      	11012.7051    	1328    
1792 	908.4803      	11007.3935    	1327    
1793 	908.9185      	11002.0871    	1325    
1794 	909.3567      	10996.7850    	1320    
1795 	909.7950      	10991.4873    	1318    
1796 	910.2333      	10986.1947    	1316    
1797 	910.6716      	10980.9072    	1315    
1798 	911.1099      	10975.6241    	1314    
1799 	911.5483      	10970.3460    	1314    
1800 	911.9867      	10965.0723    	1311    
1801 	912.4251      	10959.8036    	1309    
1802 	912.8636      	10954.5393    	1307    
1803 	913.3021      	10949.2800    	1304    
1804 	913.7405      	10944.0258    	1303    
1805 	914.1791      	10938.7758    	1301    
1806 	914.6177      	10933.5302    	1299    
1807 	915.0562      	10928.2904    	1298    
1808 	915.4949      	10923.0541    	1297    
1809 	915.9335      	10917.8235    	1296    
1810 	916.3722      	10912.5965    	1296    
1811 	916.8109      	10907.3753    	1294    
1812 	917.2496      	10902.1583    	1294    
1813 	917.6884      	10896.9455    	1293    
1814 	918.1271      	10891.7378    	1292    
1815 	918.5659      	10886.5350    	1291    
1816 	919.0048      	10881.3364    	1289    
1817 	919.4437      	10876.1422    	1287    
1818 	919.8825      	10870.9535    	1285    
1819 	920.3215      	10865.7684    	1283    
1820 	920.7604      	10860.5890    	1280    
1821 	921.1993      	10855.4138    	1280    
1822 	921.6384      	10850.2427    	1279    
1823 	922.0774      	10845.0767    	1278    
1824 	922.5164      	10839.9155    	1277    
1825 	922.9555      	10834.7585    	1277    
1826 	923.3947      	10829.6057    	1275    
1827 	923.8337      	10824.4585    	1273    
1828 	924.2729      	10819.3148    	1270    
1829 	924.7121      	10814.1767    	1268    
1830 	925.1513      	10809.0427    	1265    
1831 	925.5906      	10803.9129    	1262    
1832 	926.0298      	10798.7880    	1261    
1833 	926.4692      	10793.6672    	1259    
1834 	926.9085      	10788.5513    	1257    
1835 	927.3478      	10783.4402    	1256    
1836 	927.7872      	10778.3333    	1255    
1837 	928.2266      	10773.2312    	1253    
1838 	928.6661      	10768.1332    	1251    
1839 	929.1055      	10763.0400    	1250    
1840 	929.5450      	10757.9517    	1250    
1841 	929.9846      	10752.8667    	1249    
1842 	930.4241      	10747.7873    	1248    
1843 	930.8636      	10742.7119    	1248    
1844 	931.3032      	10737.6414    	1248    
1845 	931.7429      	10732.5749    	1248    
1846 	932.1825      	10727.5132    	1248    
1847 	932.6222      	10722.4555    	1246    
1848 	933.0619      	10717.4027    	1245    
1849 	933.5016      	10712.3539    	1244    
1850 	933.9414      	10707.3098    	1242    
1851 	934.3812      	10702.2698    	1243    
1852 	934.8210      	10697.2346    	1243    
1853 	935.2609      	10692.2040    	1242    
1854 	935.7007      	10687.1776    	1241    
1855 	936.1406      	10682.1558    	1241    
1856 	936.5806      	10677.1380    	1241    
1857 	937.0205      	10672.1250    	1241    
1858 	937.4605      	10667.1160    	1240    
1859 	937.9005      	10662.1117    	1239    
1860 	938.3405      	10657.1120    	1239    
1861 	938.7806      	10652.1164    	1237    
1862 	939.2207      	10647.1248    	1236    
1863 	939.6608      	10642.1385    	1235    
1864 	940.1010      	10637.1555    	1232    
1865 	940.5411      	10632.1778    	1230    
1866 	940.9813      	10627.2035    	1228    
1867 	941.4215      	10622.2345    	1226    
1868 	941.8618      	10617.2694    	1226    
1869 	942.3021      	10612.3083    	1226    
1870 	942.7424      	10607.3518    	1225    
1871 	943.1827      	10602.4000    	1225    
1872 	943.6230      	10597.4521    	1223    
1873 	944.0634      	10592.5088    	1221    
1874 	944.5038      	10587.5694    	1220    
1875 	944.9443      	10582.6346    	1219    
1876 	945.3848      	10577.7038    	1218    
1877 	945.8253      	10572.7775    	1216    
1878 	946.2657      	10567.8558    	1216    
1879 	946.7063      	10562.9381    	1215    
1880 	947.1469      	10558.0242    	1214    
1881 	947.5875      	10553.1149    	1214    
1882 	948.0281      	10548.2101    	1213    
1883 	948.4688      	10543.3093    	1212    
1884 	948.9095      	10538.4129    	1211    
1885 	949.3502      	10533.5212    	1210    
1886 	949.7909      	10528.6333    	1209    
1887 	950.2317      	10523.7492    	1208    
1888 	950.6725      	10518.8697    	1207    
1889 	951.1133      	10513.9947    	1206    
1890 	951.5541      	10509.1235    	1207    
1891 	951.9950      	10504.2569    	1207    
1892 	952.4359      	10499.3941    	1207    
1893 	952.8768      	10494.5358    	1208    
1894 	953.3178      	10489.6813    	1208    
1895 	953.7588      	10484.8313    	1207    
1896 	954.1998      	10479.9858    	1206    
1897 	954.6408      	10475.1441    	1205    
1898 	955.0819      	10470.3062    	1204    
1899 	955.5229      	10465.4734    	1203    
1900 	955.9641      	10460.6437    	1202    
1901 	956.4052      	10455.8192    	1202    
1902 	956.8464      	10450.9978    	1202    
1903 	957.2876      	10446.1815    	1201    
1904 	957.7288      	10441.3690    	1201    
1905 	958.1701      	10436.5602    	1201    
1906 	958.6113      	10431.7565    	1201    
1907 	959.0527      	10426.9560    	1199    
1908 	959.4940      	10422.1598    	1199    
1909 	959.9354      	10417.3681    	1199    
1910 	960.3767      	10412.5807    	1198    
1911 	960.8182      	10407.7964    	1198    
1912 	961.2596      	10403.0172    	1197    
1913 	961.7010      	10398.2417    	1196    
1914 	962.1426      	10393.4700    	1195    
1915 	962.5840      	10388.7032    	1193    
1916 	963.0256      	10383.9396    	1194    
1917 	963.4672      	10379.1803    	1195    
1918 	963.9088      	10374.4253    	1195    
1919 	964.3504      	10369.6747    	1194    
1920 	964.7921      	10364.9278    	1195    
1921 	965.2338      	10360.1846    	1195    
1922 	965.6755      	10355.4457    	1195    
1923 	966.1172      	10350.7112    	1194    
1924 	966.5590      	10345.9803    	1193    
1925 	967.0007      	10341.2538    	1193    
1926 	967.4426      	10336.5309    	1193    
1927 	967.8844      	10331.8124    	1193    
1928 	968.3263      	10327.0974    	1194    
1929 	968.7682      	10322.3868    	1195    
1930 	969.2101      	10317.6805    	1194    
1931 	969.6520      	10312.9779    	1194    
1932 	970.0941      	10308.2788    	1194    
1933 	970.5360      	10303.5847    	1194    
1934 	970.9781      	10298.8936    	1194    
1935 	971.4201      	10294.2074    	1194    
1936 	971.8622      	10289.5241    	1194    
1937 	972.3043      	10284.8458    	1193    
1938 	972.7465      	10280.1711    	1192    
1939 	973.1886      	10275.5006    	1192    
1940 	973.6308      	10270.8337    	1192    
1941 	974.0731      	10266.1704    	1191    
1942 	974.5153      	10261.5120    	1190    
1943 	974.9576      	10256.8565    	1190    
1944 	975.3998      	10252.2059    	1190    
1945 	975.8422      	10247.5589    	1190    
1946 	976.2845      	10242.9154    	1190    
1947 	976.7269      	10238.2761    	1191    
1948 	977.1693      	10233.6411    	1191    
1949 	977.6118      	10229.0096    	1191    
1950 	978.0542      	10224.3823    	1191    
1951 	978.4967      	10219.7585    	1192    
1952 	978.9392      	10215.1389    	1191    
1953 	979.3818      	10210.5229    	1190    
1954 	979.8243      	10205.9110    	1190    
1955 	980.2669      	10201.3033    	1190    
1956 	980.7095      	10196.6991    	1191    
1957 	981.1522      	10192.0990    	1191    
1958 	981.5948      	10187.5025    	1191    
1959 	982.0375      	10182.9102    	1192    
1960 	982.4803      	10178.3213    	1192    
1961 	982.9230      	10173.7365    	1192    
1962 	983.3658      	10169.1553    	1193    
1963 	983.8087      	10164.5782    	1194    
1964 	984.2515      	10160.0052    	1195    
1965 	984.6943      	10155.4357    	1195    
1966 	985.1372      	10150.8703    	1194    
1967 	985.5801      	10146.3084    	1194    
1968 	986.0231      	10141.7505    	1193    
1969 	986.4661      	10137.1962    	1193    
1970 	986.9091      	10132.6459    	1194    
1971 	987.3521      	10128.0997    	1195    
1972 	987.7951      	10123.5569    	1195    
1973 	988.2382      	10119.0183    	1194    
1974 	988.6813      	10114.4831    	1195    
1975 	989.1244      	10109.9519    	1195    
1976 	989.5676      	10105.4242    	1193    
1977 	990.0107      	10100.9005    	1193    
1978 	990.4539      	10096.3809    	1192    
1979 	990.8972      	10091.8647    	1192    
1980 	991.3405      	10087.3519    	1192    
1981 	991.7838      	10082.8431    	1192    
1982 	992.2271      	10078.3384    	1192    
1983 	992.6704      	10073.8371    	1192    
1984 	993.1138      	10069.3398    	1191    
1985 	993.5571      	10064.8465    	1190    
1986 	994.0005      	10060.3566    	1190    
1987 	994.4440      	10055.8701    	1191    
1988 	994.8875      	10051.3876    	1191    
1989 	995.3310      	10046.9091    	1191    
1990 	995.7745      	10042.4339    	1191    
1991 	996.2181      	10037.9628    	1189    
1992 	996.6616      	10033.4956    	1188    
1993 	997.1053      	10029.0312    	1188    
1994 	997.5489      	10024.5713    	1190    
1995 	997.9926      	10020.1148    	1190    
1996 	998.4362      	10015.6623    	1191    
1997 	998.8799      	10011.2131    	1192    
1998 	999.3237      	10006.7679    	1192    
1999 	999.7675      	10002.3260    	1192    
2000 	1000.2112     	9997.8880     	1191    
2001 	1000.6551     	9993.4534     	1191    
2002 	1001.0989     	9989.0227     	1191    
2003 	1001.5428     	9984.5959     	1191    
2004 	1001.9867     	9980.1724     	1191    
2005 	1002.4306     	9975.7529     	1191    
2006 	1002.8746     	9971.3367     	1191    
2007 	1003.3185     	9966.9243     	1192    
2008 	1003.7626     	9962.5153     	1192    
2009 	1004.2066     	9958.1102     	1192    
2010 	1004.6506     	9953.7089     	1192    
2011 	1005.0947     	9949.3110     	1192    
2012 	1005.5388     	9944.9169     	1192    
2013 	1005.9830     	9940.5261     	1192    
2014 	1006.4271     	9936.1392     	1191    
2015 	1006.8713     	9931.7556     	1190    
2016 	1007.3156     	9927.3758     	1190    
2017 	1007.7598     	9922.9998     	1190    
2018 	1008.2040     	9918.6272     	1190    
2019 	1008.6484     	9914.2578     	1191    
2020 	1009.0927     	9909.8928     	1192    
2021 	1009.5370     	9905.5305     	1194    
2022 	1009.9814     	9901.1726     	1194    
2023 	1010.4258     	9896.8179     	1193    
2024 	1010.8702     	9892.4665     	1192    
2025 	1011.3147     	9888.1189     	1193    
2026 	1011.7592     	9883.7752     	1193    
2027 	1012.2037     	9879.4346     	1193    
2028 	1012.6482     	9875.0979     	1194    
2029 	1013.0928     	9870.7643     	1195    
2030 	1013.5374     	9866.4346     	1195    
2031 	1013.9820     	9862.1081     	1195    
2032 	1014.4266     	9857.7853     	1197    
2033 	1014.8713     	9853.4664     	1197    
2034 	1015.3160     	9849.1506     	1197    
2035 	1015.7607     	9844.8386     	1197    
2036 	1016.2054     	9840.5298     	1197    
2037 	1016.6502     	9836.2248     	1196    
2038 	1017.0950     	9831.9230     	1195    
2039 	1017.5399     	9827.6249     	1195    
2040 	1017.9847     	9823.3305     	1195    
2041 	1018.4296     	9819.0394     	1195    
2042 	1018.8745     	9814.7519     	1194    
2043 	1019.3194     	9810.4677     	1194    
2044 	1019.7643     	9806.1872     	1196    
2045 	1020.2094     	9801.9098     	1196    
2046 	1020.6544     	9797.6361     	1196    
2047 	1021.0994     	9793.3656     	1196    
2048 	1021.5444     	9789.0994     	1196    
