Unit Serial No : Xe_Mono_Cal
Integration Time : 2 ms
Time Average: 15
Binning Average: 10
FFT Smoothing: 7%
Project Name : Project Name
Sample Name : 0068
Measurement No : 1
Measurement Time : 11/11/2024   11:36:31

Pixel	Wavelength(nm)	Wavenumber(1/cm)	Intensity(Counts)
1    	171.7139      	58236.3993    	1384    
2    	172.0962      	58107.0281    	1385    
3    	172.4786      	57978.2150    	1389    
4    	172.8610      	57849.9615    	1390    
5    	173.2434      	57722.2641    	1392    
6    	173.6258      	57595.1190    	1399    
7    	174.0083      	57468.5178    	1400    
8    	174.3908      	57342.4618    	1400    
9    	174.7734      	57216.9476    	1401    
10   	175.1560      	57091.9668    	1402    
11   	175.5386      	56967.5258    	1402    
12   	175.9213      	56843.6064    	1409    
13   	176.3040      	56720.2201    	1413    
14   	176.6867      	56597.3536    	1413    
15   	177.0695      	56475.0085    	1417    
16   	177.4523      	56353.1815    	1419    
17   	177.8351      	56231.8645    	1421    
18   	178.2180      	56111.0591    	1420    
19   	178.6009      	55990.7621    	1421    
20   	178.9838      	55870.9703    	1422    
21   	179.3668      	55751.6757    	1425    
22   	179.7498      	55632.8800    	1426    
23   	180.1329      	55514.5802    	1427    
24   	180.5159      	55396.7683    	1427    
25   	180.8991      	55279.4461    	1427    
26   	181.2822      	55162.6104    	1429    
27   	181.6654      	55046.2538    	1426    
28   	182.0486      	54930.3823    	1426    
29   	182.4319      	54814.9840    	1427    
30   	182.8152      	54700.0557    	1427    
31   	183.1985      	54585.6038    	1428    
32   	183.5818      	54471.6163    	1425    
33   	183.9652      	54358.0949    	1423    
34   	184.3487      	54245.0322    	1421    
35   	184.7321      	54132.4298    	1421    
36   	185.1156      	54020.2851    	1421    
37   	185.4992      	53908.5953    	1421    
38   	185.8828      	53797.3530    	1421    
39   	186.2664      	53686.5601    	1421    
40   	186.6500      	53576.2139    	1421    
41   	187.0337      	53466.3116    	1420    
42   	187.4174      	53356.8463    	1417    
43   	187.8011      	53247.8196    	1417    
44   	188.1849      	53139.2290    	1415    
45   	188.5687      	53031.0675    	1416    
46   	188.9526      	52923.3368    	1420    
47   	189.3364      	52816.0345    	1418    
48   	189.7204      	52709.1579    	1418    
49   	190.1043      	52602.7003    	1416    
50   	190.4883      	52496.6635    	1416    
51   	190.8723      	52391.0449    	1416    
52   	191.2564      	52285.8380    	1415    
53   	191.6405      	52181.0444    	1417    
54   	192.0246      	52076.6618    	1419    
55   	192.4088      	51972.6877    	1420    
56   	192.7930      	51869.1156    	1420    
57   	193.1772      	51765.9474    	1420    
58   	193.5614      	51663.1806    	1420    
59   	193.9457      	51560.8129    	1421    
60   	194.3301      	51458.8380    	1421    
61   	194.7144      	51357.2575    	1422    
62   	195.0988      	51256.0693    	1421    
63   	195.4833      	51155.2671    	1422    
64   	195.8678      	51054.8526    	1423    
65   	196.2523      	50954.8237    	1423    
66   	196.6368      	50855.1781    	1423    
67   	197.0214      	50755.9096    	1420    
68   	197.4060      	50657.0201    	1421    
69   	197.7906      	50558.5073    	1425    
70   	198.1753      	50460.3654    	1426    
71   	198.5601      	50362.5959    	1425    
72   	198.9448      	50265.1969    	1423    
73   	199.3296      	50168.1662    	1420    
74   	199.7144      	50071.4980    	1420    
75   	200.0993      	49975.1939    	1420    
76   	200.4842      	49879.2520    	1420    
77   	200.8691      	49783.6701    	1419    
78   	201.2540      	49688.4426    	1420    
79   	201.6390      	49593.5712    	1420    
80   	202.0241      	49499.0540    	1420    
81   	202.4091      	49404.8851    	1419    
82   	202.7942      	49311.0701    	1419    
83   	203.1794      	49217.5997    	1420    
84   	203.5645      	49124.4719    	1423    
85   	203.9497      	49031.6922    	1422    
86   	204.3350      	48939.2513    	1421    
87   	204.7202      	48847.1510    	1419    
88   	205.1055      	48755.3859    	1419    
89   	205.4909      	48663.9613    	1419    
90   	205.8763      	48572.8681    	1415    
91   	206.2617      	48482.1046    	1415    
92   	206.6471      	48391.6760    	1415    
93   	207.0326      	48301.5735    	1419    
94   	207.4181      	48211.7988    	1422    
95   	207.8036      	48122.3501    	1422    
96   	208.1892      	48033.2222    	1422    
97   	208.5748      	47944.4203    	1423    
98   	208.9605      	47855.9356    	1422    
99   	209.3462      	47767.7666    	1421    
100  	209.7319      	47679.9183    	1420    
101  	210.1177      	47592.3822    	1421    
102  	210.5034      	47505.1600    	1422    
103  	210.8893      	47418.2466    	1424    
104  	211.2751      	47331.6439    	1424    
105  	211.6610      	47245.3501    	1421    
106  	212.0470      	47159.3636    	1422    
107  	212.4329      	47073.6828    	1427    
108  	212.8189      	46988.3026    	1428    
109  	213.2050      	46903.2249    	1427    
110  	213.5910      	46818.4480    	1423    
111  	213.9771      	46733.9670    	1420    
112  	214.3633      	46649.7871    	1420    
113  	214.7494      	46565.8966    	1419    
114  	215.1356      	46482.3040    	1419    
115  	215.5219      	46399.0044    	1419    
116  	215.9081      	46315.9930    	1420    
117  	216.2944      	46233.2716    	1420    
118  	216.6808      	46150.8354    	1420    
119  	217.0672      	46068.6894    	1421    
120  	217.4536      	45986.8257    	1422    
121  	217.8400      	45905.2459    	1423    
122  	218.2265      	45823.9455    	1426    
123  	218.6130      	45742.9293    	1424    
124  	218.9996      	45662.1895    	1424    
125  	219.3862      	45581.7280    	1425    
126  	219.7728      	45501.5400    	1425    
127  	220.1594      	45421.6274    	1429    
128  	220.5461      	45341.9886    	1426    
129  	220.9328      	45262.6225    	1426    
130  	221.3196      	45183.5274    	1426    
131  	221.7064      	45104.6990    	1430    
132  	222.0932      	45026.1389    	1433    
133  	222.4801      	44947.8459    	1434    
134  	222.8670      	44869.8155    	1434    
135  	223.2539      	44792.0525    	1434    
136  	223.6409      	44714.5494    	1435    
137  	224.0279      	44637.3049    	1436    
138  	224.4149      	44560.3238    	1436    
139  	224.8020      	44483.5987    	1436    
140  	225.1891      	44407.1313    	1436    
141  	225.5762      	44330.9204    	1436    
142  	225.9634      	44254.9617    	1436    
143  	226.3506      	44179.2568    	1434    
144  	226.7378      	44103.8046    	1434    
145  	227.1251      	44028.6038    	1433    
146  	227.5124      	43953.6531    	1434    
147  	227.8997      	43878.9483    	1436    
148  	228.2871      	43804.4912    	1432    
149  	228.6745      	43730.2776    	1432    
150  	229.0620      	43656.3121    	1432    
151  	229.4494      	43582.5877    	1432    
152  	229.8369      	43509.1061    	1433    
153  	230.2245      	43435.8661    	1430    
154  	230.6121      	43362.8637    	1428    
155  	230.9997      	43290.1005    	1428    
156  	231.3873      	43217.5754    	1428    
157  	231.7750      	43145.2872    	1427    
158  	232.1628      	43073.2320    	1426    
159  	232.5505      	43001.4142    	1426    
160  	232.9383      	42929.8271    	1426    
161  	233.3261      	42858.4695    	1426    
162  	233.7140      	42787.3459    	1427    
163  	234.1019      	42716.4497    	1426    
164  	234.4898      	42645.7824    	1427    
165  	234.8777      	42575.3403    	1430    
166  	235.2657      	42505.1278    	1431    
167  	235.6538      	42435.1382    	1431    
168  	236.0418      	42365.3733    	1429    
169  	236.4299      	42295.8319    	1429    
170  	236.8181      	42226.5103    	1428    
171  	237.2062      	42157.4101    	1429    
172  	237.5944      	42088.5303    	1431    
173  	237.9827      	42019.8698    	1432    
174  	238.3709      	41951.4276    	1437    
175  	238.7592      	41883.2000    	1440    
176  	239.1476      	41815.1886    	1441    
177  	239.5359      	41747.3923    	1441    
178  	239.9243      	41679.8077    	1442    
179  	240.3128      	41612.4362    	1443    
180  	240.7012      	41545.2769    	1445    
181  	241.0898      	41478.3288    	1445    
182  	241.4783      	41411.5908    	1448    
183  	241.8669      	41345.0595    	1448    
184  	242.2555      	41278.7363    	1449    
185  	242.6441      	41212.6205    	1452    
186  	243.0328      	41146.7083    	1450    
187  	243.4215      	41081.0041    	1450    
188  	243.8103      	41015.5017    	1450    
189  	244.1991      	40950.2001    	1450    
190  	244.5879      	40885.1036    	1450    
191  	244.9767      	40820.2061    	1448    
192  	245.3656      	40755.5092    	1446    
193  	245.7545      	40691.0121    	1445    
194  	246.1435      	40626.7137    	1446    
195  	246.5325      	40562.6106    	1445    
196  	246.9215      	40498.7071    	1447    
197  	247.3105      	40434.9946    	1448    
198  	247.6996      	40371.4797    	1450    
199  	248.0887      	40308.1591    	1451    
200  	248.4779      	40245.0294    	1451    
201  	248.8671      	40182.0923    	1450    
202  	249.2563      	40119.3443    	1451    
203  	249.6456      	40056.7895    	1454    
204  	250.0349      	39994.4222    	1454    
205  	250.4242      	39932.2439    	1455    
206  	250.8136      	39870.2538    	1453    
207  	251.2030      	39808.4486    	1452    
208  	251.5924      	39746.8323    	1452    
209  	251.9818      	39685.3992    	1453    
210  	252.3713      	39624.1510    	1453    
211  	252.7609      	39563.0844    	1452    
212  	253.1504      	39502.2033    	1456    
213  	253.5400      	39441.5022    	1458    
214  	253.9297      	39380.9826    	1458    
215  	254.3194      	39320.6414    	1457    
216  	254.7090      	39260.4824    	1457    
217  	255.0988      	39200.5002    	1457    
218  	255.4886      	39140.6964    	1456    
219  	255.8784      	39081.0678    	1456    
220  	256.2682      	39021.6159    	1457    
221  	256.6581      	38962.3423    	1457    
222  	257.0480      	38903.2439    	1458    
223  	257.4379      	38844.3152    	1458    
224  	257.8279      	38785.5603    	1455    
225  	258.2179      	38726.9782    	1455    
226  	258.6080      	38668.5683    	1454    
227  	258.9980      	38610.3298    	1455    
228  	259.3882      	38552.2619    	1460    
229  	259.7783      	38494.3638    	1460    
230  	260.1685      	38436.6349    	1460    
231  	260.5587      	38379.0699    	1458    
232  	260.9489      	38321.6726    	1456    
233  	261.3392      	38264.4467    	1457    
234  	261.7295      	38207.3826    	1458    
235  	262.1199      	38150.4839    	1458    
236  	262.5103      	38093.7501    	1458    
237  	262.9007      	38037.1759    	1458    
238  	263.2911      	37980.7695    	1459    
239  	263.6816      	37924.5257    	1459    
240  	264.0721      	37868.4395    	1459    
241  	264.4627      	37812.5146    	1459    
242  	264.8533      	37756.7547    	1460    
243  	265.2439      	37701.1503    	1464    
244  	265.6346      	37645.7051    	1463    
245  	266.0252      	37590.4184    	1463    
246  	266.4160      	37535.2853    	1463    
247  	266.8067      	37480.3136    	1463    
248  	267.1975      	37425.4985    	1462    
249  	267.5883      	37370.8349    	1458    
250  	267.9792      	37316.3266    	1458    
251  	268.3701      	37261.9728    	1458    
252  	268.7610      	37207.7771    	1462    
253  	269.1520      	37153.7304    	1464    
254  	269.5430      	37099.8320    	1463    
255  	269.9340      	37046.0899    	1463    
256  	270.3251      	36992.4990    	1462    
257  	270.7162      	36939.0546    	1463    
258  	271.1073      	36885.7644    	1463    
259  	271.4985      	36832.6195    	1462    
260  	271.8897      	36779.6234    	1462    
261  	272.2809      	36726.7755    	1463    
262  	272.6722      	36674.0751    	1464    
263  	273.0635      	36621.5216    	1463    
264  	273.4548      	36569.1144    	1460    
265  	273.8462      	36516.8530    	1461    
266  	274.2376      	36464.7326    	1466    
267  	274.6290      	36412.7608    	1467    
268  	275.0205      	36360.9288    	1468    
269  	275.4120      	36309.2402    	1464    
270  	275.8035      	36257.6943    	1462    
271  	276.1951      	36206.2906    	1462    
272  	276.5867      	36155.0284    	1462    
273  	276.9783      	36103.9072    	1461    
274  	277.3700      	36052.9263    	1461    
275  	277.7617      	36002.0814    	1462    
276  	278.1534      	35951.3796    	1462    
277  	278.5452      	35900.8126    	1463    
278  	278.9370      	35850.3837    	1465    
279  	279.3289      	35800.0924    	1464    
280  	279.7208      	35749.9381    	1465    
281  	280.1127      	35699.9202    	1469    
282  	280.5046      	35650.0382    	1467    
283  	280.8966      	35600.2916    	1467    
284  	281.2886      	35550.6758    	1467    
285  	281.6806      	35501.1982    	1468    
286  	282.0727      	35451.8504    	1467    
287  	282.4648      	35402.6358    	1463    
288  	282.8570      	35353.5539    	1462    
289  	283.2491      	35304.6078    	1462    
290  	283.6414      	35255.7857    	1467    
291  	284.0336      	35207.0985    	1471    
292  	284.4259      	35158.5418    	1472    
293  	284.8182      	35110.1150    	1473    
294  	285.2106      	35061.8140    	1473    
295  	285.6029      	35013.6457    	1474    
296  	285.9954      	34965.6021    	1474    
297  	286.3878      	34917.6864    	1474    
298  	286.7803      	34869.8982    	1474    
299  	287.1728      	34822.2369    	1473    
300  	287.5654      	34774.7020    	1473    
301  	287.9579      	34727.2930    	1473    
302  	288.3506      	34680.0058    	1469    
303  	288.7432      	34632.8472    	1470    
304  	289.1359      	34585.8094    	1470    
305  	289.5286      	34538.8992    	1470    
306  	289.9214      	34492.1088    	1472    
307  	290.3142      	34445.4413    	1472    
308  	290.7070      	34398.8964    	1473    
309  	291.0999      	34352.4735    	1474    
310  	291.4927      	34306.1721    	1474    
311  	291.8857      	34259.9918    	1474    
312  	292.2786      	34213.9285    	1469    
313  	292.6716      	34167.9889    	1466    
314  	293.0646      	34122.1654    	1465    
315  	293.4577      	34076.4647    	1466    
316  	293.8508      	34030.8791    	1466    
317  	294.2439      	33985.4118    	1466    
318  	294.6371      	33940.0624    	1465    
319  	295.0302      	33894.8302    	1465    
320  	295.4235      	33849.7150    	1466    
321  	295.8167      	33804.7128    	1467    
322  	296.2100      	33759.8300    	1467    
323  	296.6033      	33715.0629    	1468    
324  	296.9967      	33670.4073    	1471    
325  	297.3901      	33625.8665    	1471    
326  	297.7835      	33581.4399    	1471    
327  	298.1770      	33537.1271    	1468    
328  	298.5705      	33492.9276    	1468    
329  	298.9640      	33448.8411    	1467    
330  	299.3576      	33404.8671    	1466    
331  	299.7512      	33361.0052    	1467    
332  	300.1448      	33317.2516    	1466    
333  	300.5385      	33273.6125    	1469    
334  	300.9322      	33230.0809    	1471    
335  	301.3259      	33186.6630    	1472    
336  	301.7196      	33143.3518    	1472    
337  	302.1134      	33100.1501    	1472    
338  	302.5073      	33057.0575    	1472    
339  	302.9011      	33014.0737    	1473    
340  	303.2950      	32971.1949    	1472    
341  	303.6890      	32928.4273    	1471    
342  	304.0829      	32885.7672    	1470    
343  	304.4769      	32843.2110    	1470    
344  	304.8709      	32800.7647    	1472    
345  	305.2650      	32758.4214    	1469    
346  	305.6591      	32716.1841    	1468    
347  	306.0533      	32674.0523    	1468    
348  	306.4474      	32632.0256    	1468    
349  	306.8416      	32590.1037    	1468    
350  	307.2358      	32548.2860    	1465    
351  	307.6301      	32506.5724    	1463    
352  	308.0244      	32464.9591    	1461    
353  	308.4187      	32423.4522    	1462    
354  	308.8131      	32382.0449    	1463    
355  	309.2075      	32340.7400    	1464    
356  	309.6019      	32299.5404    	1464    
357  	309.9964      	32258.4392    	1463    
358  	310.3909      	32217.4394    	1462    
359  	310.7854      	32176.5405    	1462    
360  	311.1800      	32135.7390    	1461    
361  	311.5746      	32095.0408    	1463    
362  	311.9692      	32054.4425    	1467    
363  	312.3639      	32013.9404    	1468    
364  	312.7586      	31973.5406    	1468    
365  	313.1534      	31933.2365    	1464    
366  	313.5481      	31893.0307    	1465    
367  	313.9429      	31852.9229    	1464    
368  	314.3378      	31812.9127    	1464    
369  	314.7326      	31772.9999    	1464    
370  	315.1275      	31733.1840    	1463    
371  	315.5225      	31693.4648    	1467    
372  	315.9174      	31653.8417    	1471    
373  	316.3124      	31614.3116    	1472    
374  	316.7075      	31574.8800    	1471    
375  	317.1025      	31535.5406    	1471    
376  	317.4977      	31496.2961    	1470    
377  	317.8928      	31457.1491    	1470    
378  	318.2879      	31418.0933    	1471    
379  	318.6831      	31379.1314    	1472    
380  	319.0784      	31340.2630    	1471    
381  	319.4737      	31301.4847    	1471    
382  	319.8690      	31262.8024    	1472    
383  	320.2643      	31224.2125    	1468    
384  	320.6597      	31185.7118    	1468    
385  	321.0551      	31147.3060    	1468    
386  	321.4505      	31108.9887    	1468    
387  	321.8460      	31070.7627    	1472    
388  	322.2415      	31032.6275    	1473    
389  	322.6370      	30994.5829    	1473    
390  	323.0326      	30956.6286    	1470    
391  	323.4282      	30918.7642    	1469    
392  	323.8238      	30880.9894    	1469    
393  	324.2195      	30843.3038    	1468    
394  	324.6152      	30805.7044    	1467    
395  	325.0109      	30768.1965    	1466    
396  	325.4067      	30730.7740    	1466    
397  	325.8025      	30693.4425    	1465    
398  	326.1983      	30656.1958    	1464    
399  	326.5942      	30619.0366    	1464    
400  	326.9901      	30581.9645    	1464    
401  	327.3860      	30544.9792    	1464    
402  	327.7820      	30508.0804    	1468    
403  	328.1780      	30471.2678    	1466    
404  	328.5741      	30434.5383    	1466    
405  	328.9701      	30397.8972    	1465    
406  	329.3662      	30361.3387    	1465    
407  	329.7624      	30324.8679    	1464    
408  	330.1585      	30288.4791    	1460    
409  	330.5547      	30252.1747    	1458    
410  	330.9510      	30215.9572    	1457    
411  	331.3472      	30179.8208    	1459    
412  	331.7435      	30143.7680    	1461    
413  	332.1399      	30107.7956    	1461    
414  	332.5363      	30071.9090    	1461    
415  	332.9326      	30036.1051    	1461    
416  	333.3291      	30000.3809    	1461    
417  	333.7256      	29964.7415    	1462    
418  	334.1221      	29929.1812    	1463    
419  	334.5186      	29893.7053    	1464    
420  	334.9152      	29858.3079    	1464    
421  	335.3118      	29822.9915    	1464    
422  	335.7084      	29787.7559    	1463    
423  	336.1051      	29752.6007    	1459    
424  	336.5018      	29717.5257    	1460    
425  	336.8985      	29682.5306    	1464    
426  	337.2953      	29647.6152    	1463    
427  	337.6921      	29612.7764    	1464    
428  	338.0889      	29578.0195    	1461    
429  	338.4858      	29543.3387    	1460    
430  	338.8827      	29508.7391    	1460    
431  	339.2796      	29474.2152    	1461    
432  	339.6766      	29439.7693    	1461    
433  	340.0736      	29405.4012    	1460    
434  	340.4706      	29371.1106    	1460    
435  	340.8677      	29336.8973    	1461    
436  	341.2648      	29302.7610    	1461    
437  	341.6619      	29268.7014    	1461    
438  	342.0591      	29234.7157    	1460    
439  	342.4563      	29200.8088    	1460    
440  	342.8535      	29166.9778    	1462    
441  	343.2508      	29133.2200    	1461    
442  	343.6481      	29099.5377    	1461    
443  	344.0454      	29065.9331    	1461    
444  	344.4427      	29032.4010    	1461    
445  	344.8401      	28998.9435    	1459    
446  	345.2376      	28965.5605    	1456    
447  	345.6350      	28932.2518    	1457    
448  	346.0325      	28899.0170    	1456    
449  	346.4301      	28865.8533    	1458    
450  	346.8276      	28832.7657    	1460    
451  	347.2253      	28799.7488    	1459    
452  	347.6229      	28766.8075    	1458    
453  	348.0205      	28733.9364    	1458    
454  	348.4182      	28701.1403    	1458    
455  	348.8159      	28668.4139    	1458    
456  	349.2137      	28635.7597    	1457    
457  	349.6115      	28603.1772    	1456    
458  	350.0093      	28570.6663    	1456    
459  	350.4072      	28538.2267    	1457    
460  	350.8051      	28505.8582    	1457    
461  	351.2030      	28473.5606    	1455    
462  	351.6010      	28441.3312    	1456    
463  	351.9990      	28409.1747    	1455    
464  	352.3970      	28377.0858    	1456    
465  	352.7950      	28345.0694    	1460    
466  	353.1931      	28313.1202    	1461    
467  	353.5913      	28281.2406    	1461    
468  	353.9894      	28249.4302    	1460    
469  	354.3876      	28217.6889    	1460    
470  	354.7859      	28186.0164    	1461    
471  	355.1841      	28154.4124    	1458    
472  	355.5824      	28122.8769    	1456    
473  	355.9807      	28091.4096    	1456    
474  	356.3791      	28060.0101    	1456    
475  	356.7775      	28028.6760    	1456    
476  	357.1759      	27997.4118    	1456    
477  	357.5743      	27966.2125    	1457    
478  	357.9728      	27935.0803    	1457    
479  	358.3713      	27904.0173    	1455    
480  	358.7699      	27873.0185    	1455    
481  	359.1685      	27842.0862    	1454    
482  	359.5671      	27811.2201    	1454    
483  	359.9658      	27780.4201    	1457    
484  	360.3644      	27749.6858    	1458    
485  	360.7632      	27719.0147    	1458    
486  	361.1619      	27688.4114    	1453    
487  	361.5607      	27657.8733    	1452    
488  	361.9595      	27627.3977    	1451    
489  	362.3584      	27596.9893    	1450    
490  	362.7573      	27566.6431    	1450    
491  	363.1562      	27536.3612    	1450    
492  	363.5551      	27506.1458    	1454    
493  	363.9541      	27475.9920    	1457    
494  	364.3531      	27445.9020    	1458    
495  	364.7522      	27415.8755    	1458    
496  	365.1512      	27385.9124    	1457    
497  	365.5504      	27356.0124    	1457    
498  	365.9495      	27326.1730    	1458    
499  	366.3487      	27296.3987    	1458    
500  	366.7479      	27266.6869    	1458    
501  	367.1472      	27237.0352    	1456    
502  	367.5464      	27207.4479    	1456    
503  	367.9457      	27177.9203    	1458    
504  	368.3451      	27148.4545    	1454    
505  	368.7444      	27119.0525    	1453    
506  	369.1439      	27089.7097    	1453    
507  	369.5433      	27060.4280    	1453    
508  	369.9428      	27031.2074    	1453    
509  	370.3423      	27002.0476    	1450    
510  	370.7419      	26972.9461    	1447    
511  	371.1414      	26943.9074    	1446    
512  	371.5410      	26914.9288    	1446    
513  	371.9407      	26886.0082    	1445    
514  	372.3403      	26857.1496    	1443    
515  	372.7401      	26828.3485    	1442    
516  	373.1398      	26799.6091    	1441    
517  	373.5396      	26770.9269    	1441    
518  	373.9394      	26742.3038    	1441    
519  	374.3392      	26713.7418    	1439    
520  	374.7390      	26685.2364    	1439    
521  	375.1389      	26656.7897    	1443    
522  	375.5389      	26628.4013    	1444    
523  	375.9389      	26600.0691    	1444    
524  	376.3389      	26571.7970    	1441    
525  	376.7389      	26543.5829    	1440    
526  	377.1390      	26515.4243    	1439    
527  	377.5391      	26487.3254    	1440    
528  	377.9392      	26459.2838    	1441    
529  	378.3394      	26431.2973    	1441    
530  	378.7396      	26403.3678    	1444    
531  	379.1398      	26375.4973    	1446    
532  	379.5400      	26347.6813    	1447    
533  	379.9403      	26319.9218    	1448    
534  	380.3407      	26292.2187    	1448    
535  	380.7410      	26264.5716    	1448    
536  	381.1414      	26236.9806    	1448    
537  	381.5418      	26209.4454    	1448    
538  	381.9423      	26181.9637    	1449    
539  	382.3428      	26154.5396    	1449    
540  	382.7433      	26127.1708    	1450    
541  	383.1439      	26099.8550    	1450    
542  	383.5445      	26072.5964    	1446    
543  	383.9451      	26045.3904    	1446    
544  	384.3458      	26018.2391    	1445    
545  	384.7464      	25991.1444    	1445    
546  	385.1472      	25964.1019    	1446    
547  	385.5479      	25937.1136    	1446    
548  	385.9487      	25910.1793    	1445    
549  	386.3495      	25883.2988    	1439    
550  	386.7504      	25856.4720    	1434    
551  	387.1512      	25829.6987    	1433    
552  	387.5522      	25802.9767    	1432    
553  	387.9531      	25776.3100    	1431    
554  	388.3541      	25749.6963    	1430    
555  	388.7551      	25723.1334    	1429    
556  	389.1562      	25696.6253    	1428    
557  	389.5573      	25670.1678    	1427    
558  	389.9584      	25643.7627    	1426    
559  	390.3595      	25617.4118    	1424    
560  	390.7607      	25591.1111    	1424    
561  	391.1619      	25564.8623    	1426    
562  	391.5631      	25538.6653    	1426    
563  	391.9644      	25512.5200    	1427    
564  	392.3657      	25486.4261    	1427    
565  	392.7671      	25460.3836    	1427    
566  	393.1685      	25434.3903    	1428    
567  	393.5699      	25408.4501    	1426    
568  	393.9713      	25382.5607    	1428    
569  	394.3728      	25356.7201    	1429    
570  	394.7743      	25330.9321    	1435    
571  	395.1758      	25305.1925    	1440    
572  	395.5774      	25279.5052    	1442    
573  	395.9790      	25253.8662    	1445    
574  	396.3806      	25228.2771    	1447    
575  	396.7823      	25202.7379    	1449    
576  	397.1840      	25177.2504    	1451    
577  	397.5857      	25151.8105    	1453    
578  	397.9875      	25126.4200    	1454    
579  	398.3893      	25101.0769    	1456    
580  	398.7911      	25075.7848    	1459    
581  	399.1930      	25050.5418    	1461    
582  	399.5948      	25025.3476    	1459    
583  	399.9968      	25000.2003    	1460    
584  	400.3987      	24975.1034    	1464    
585  	400.8008      	24950.0531    	1465    
586  	401.2028      	24925.0529    	1467    
587  	401.6048      	24900.0991    	1465    
588  	402.0069      	24875.1951    	1464    
589  	402.4090      	24850.3372    	1464    
590  	402.8112      	24825.5270    	1464    
591  	403.2134      	24800.7644    	1464    
592  	403.6156      	24776.0493    	1464    
593  	404.0179      	24751.3815    	1464    
594  	404.4201      	24726.7609    	1463    
595  	404.8224      	24702.1874    	1462    
596  	405.2248      	24677.6609    	1462    
597  	405.6272      	24653.1792    	1461    
598  	406.0296      	24628.7462    	1461    
599  	406.4320      	24604.3596    	1464    
600  	406.8345      	24580.0176    	1464    
601  	407.2370      	24555.7237    	1464    
602  	407.6396      	24531.4741    	1463    
603  	408.0422      	24507.2706    	1463    
604  	408.4448      	24483.1147    	1463    
605  	408.8474      	24459.0028    	1459    
606  	409.2501      	24434.9365    	1459    
607  	409.6528      	24410.9157    	1459    
608  	410.0555      	24386.9402    	1463    
609  	410.4583      	24363.0100    	1465    
610  	410.8611      	24339.1249    	1465    
611  	411.2639      	24315.2848    	1466    
612  	411.6668      	24291.4896    	1465    
613  	412.0697      	24267.7372    	1465    
614  	412.4727      	24244.0313    	1465    
615  	412.8756      	24220.3699    	1465    
616  	413.2786      	24196.7510    	1465    
617  	413.6816      	24173.1782    	1465    
618  	414.0847      	24149.6476    	1465    
619  	414.4878      	24126.1611    	1465    
620  	414.8909      	24102.7202    	1462    
621  	415.2941      	24079.3213    	1462    
622  	415.6973      	24055.9659    	1466    
623  	416.1005      	24032.6541    	1467    
624  	416.5038      	24009.3857    	1467    
625  	416.9071      	23986.1605    	1467    
626  	417.3104      	23962.9785    	1468    
627  	417.7137      	23939.8395    	1467    
628  	418.1171      	23916.7433    	1466    
629  	418.5205      	23893.6900    	1466    
630  	418.9240      	23870.6776    	1464    
631  	419.3275      	23847.7094    	1463    
632  	419.7310      	23824.7820    	1463    
633  	420.1346      	23801.8986    	1463    
634  	420.5381      	23779.0557    	1464    
635  	420.9417      	23756.2565    	1464    
636  	421.3454      	23733.4976    	1465    
637  	421.7491      	23710.7806    	1466    
638  	422.1528      	23688.1070    	1466    
639  	422.5565      	23665.4733    	1467    
640  	422.9603      	23642.8811    	1466    
641  	423.3641      	23620.3303    	1467    
642  	423.7679      	23597.8208    	1469    
643  	424.1718      	23575.3524    	1466    
644  	424.5757      	23552.9251    	1467    
645  	424.9797      	23530.5371    	1468    
646  	425.3836      	23508.1915    	1469    
647  	425.7876      	23485.8867    	1469    
648  	426.1917      	23463.6208    	1469    
649  	426.5957      	23441.3971    	1470    
650  	426.9998      	23419.2138    	1469    
651  	427.4040      	23397.0691    	1471    
652  	427.8081      	23374.9645    	1472    
653  	428.2123      	23352.9017    	1473    
654  	428.6165      	23330.8772    	1473    
655  	429.0208      	23308.8925    	1473    
656  	429.4251      	23286.9492    	1473    
657  	429.8294      	23265.0439    	1474    
658  	430.2338      	23243.1781    	1474    
659  	430.6382      	23221.3517    	1474    
660  	431.0426      	23199.5646    	1473    
661  	431.4470      	23177.8167    	1473    
662  	431.8515      	23156.1063    	1476    
663  	432.2560      	23134.4366    	1472    
664  	432.6606      	23112.8057    	1472    
665  	433.0652      	23091.2136    	1472    
666  	433.4698      	23069.6586    	1472    
667  	433.8744      	23048.1437    	1472    
668  	434.2791      	23026.6658    	1470    
669  	434.6838      	23005.2278    	1469    
670  	435.0886      	22983.8265    	1468    
671  	435.4933      	22962.4649    	1468    
672  	435.8981      	22941.1398    	1468    
673  	436.3030      	22919.8527    	1469    
674  	436.7079      	22898.6034    	1468    
675  	437.1128      	22877.3920    	1468    
676  	437.5177      	22856.2197    	1470    
677  	437.9226      	22835.0835    	1471    
678  	438.3276      	22813.9847    	1469    
679  	438.7327      	22792.9217    	1469    
680  	439.1378      	22771.8976    	1473    
681  	439.5428      	22750.9106    	1474    
682  	439.9480      	22729.9607    	1474    
683  	440.3531      	22709.0477    	1471    
684  	440.7583      	22688.1701    	1471    
685  	441.1635      	22667.3308    	1470    
686  	441.5688      	22646.5282    	1469    
687  	441.9741      	22625.7607    	1468    
688  	442.3794      	22605.0296    	1467    
689  	442.7848      	22584.3365    	1470    
690  	443.1902      	22563.6781    	1471    
691  	443.5956      	22543.0575    	1473    
692  	444.0010      	22522.4714    	1473    
693  	444.4065      	22501.9214    	1472    
694  	444.8120      	22481.4073    	1472    
695  	445.2176      	22460.9290    	1473    
696  	445.6231      	22440.4865    	1473    
697  	446.0287      	22420.0795    	1472    
698  	446.4344      	22399.7082    	1470    
699  	446.8401      	22379.3723    	1472    
700  	447.2458      	22359.0718    	1475    
701  	447.6515      	22338.8065    	1472    
702  	448.0573      	22318.5764    	1472    
703  	448.4631      	22298.3799    	1472    
704  	448.8689      	22278.2199    	1472    
705  	449.2748      	22258.0934    	1472    
706  	449.6807      	22238.0031    	1469    
707  	450.0866      	22217.9476    	1468    
708  	450.4926      	22197.9252    	1467    
709  	450.8986      	22177.9373    	1466    
710  	451.3046      	22157.9855    	1465    
711  	451.7106      	22138.0665    	1465    
712  	452.1167      	22118.1817    	1464    
713  	452.5228      	22098.3327    	1464    
714  	452.9290      	22078.5163    	1465    
715  	453.3352      	22058.7339    	1466    
716  	453.7414      	22038.9855    	1465    
717  	454.1476      	22019.2709    	1464    
718  	454.5539      	21999.5901    	1464    
719  	454.9602      	21979.9429    	1464    
720  	455.3666      	21960.3293    	1466    
721  	455.7729      	21940.7493    	1463    
722  	456.1794      	21921.2011    	1463    
723  	456.5858      	21901.6878    	1464    
724  	456.9923      	21882.2078    	1465    
725  	457.3988      	21862.7594    	1467    
726  	457.8053      	21843.3456    	1468    
727  	458.2119      	21823.9648    	1472    
728  	458.6185      	21804.6154    	1474    
729  	459.0251      	21785.2989    	1475    
730  	459.4318      	21766.0165    	1475    
731  	459.8385      	21746.7654    	1474    
732  	460.2452      	21727.5483    	1473    
733  	460.6520      	21708.3623    	1474    
734  	461.0588      	21689.2086    	1475    
735  	461.4656      	21670.0873    	1475    
736  	461.8725      	21650.9983    	1475    
737  	462.2793      	21631.9429    	1475    
738  	462.6862      	21612.9181    	1476    
739  	463.0932      	21593.9253    	1477    
740  	463.5002      	21574.9645    	1478    
741  	463.9072      	21556.0341    	1476    
742  	464.3143      	21537.1369    	1477    
743  	464.7213      	21518.2714    	1480    
744  	465.1284      	21499.4375    	1480    
745  	465.5356      	21480.6351    	1480    
746  	465.9428      	21461.8628    	1477    
747  	466.3500      	21443.1232    	1474    
748  	466.7572      	21424.4150    	1475    
749  	467.1645      	21405.7366    	1476    
750  	467.5718      	21387.0907    	1476    
751  	467.9791      	21368.4745    	1477    
752  	468.3865      	21349.8906    	1478    
753  	468.7939      	21331.3363    	1480    
754  	469.2013      	21312.8128    	1479    
755  	469.6088      	21294.3215    	1477    
756  	470.0163      	21275.8594    	1476    
757  	470.4238      	21257.4280    	1477    
758  	470.8314      	21239.0271    	1482    
759  	471.2389      	21220.6580    	1481    
760  	471.6465      	21202.3179    	1482    
761  	472.0542      	21184.0081    	1481    
762  	472.4619      	21165.7286    	1480    
763  	472.8696      	21147.4792    	1478    
764  	473.2773      	21129.2599    	1474    
765  	473.6851      	21111.0706    	1474    
766  	474.0930      	21092.9099    	1474    
767  	474.5008      	21074.7804    	1477    
768  	474.9087      	21056.6806    	1479    
769  	475.3166      	21038.6106    	1480    
770  	475.7245      	21020.5689    	1480    
771  	476.1325      	21002.5581    	1480    
772  	476.5405      	20984.5768    	1480    
773  	476.9485      	20966.6235    	1481    
774  	477.3566      	20948.7010    	1481    
775  	477.7647      	20930.8064    	1482    
776  	478.1728      	20912.9423    	1483    
777  	478.5810      	20895.1061    	1484    
778  	478.9891      	20877.3002    	1482    
779  	479.3974      	20859.5221    	1478    
780  	479.8056      	20841.7728    	1478    
781  	480.2139      	20824.0524    	1480    
782  	480.6222      	20806.3621    	1479    
783  	481.0306      	20788.6992    	1479    
784  	481.4390      	20771.0649    	1476    
785  	481.8474      	20753.4593    	1474    
786  	482.2558      	20735.8821    	1473    
787  	482.6643      	20718.3333    	1474    
788  	483.0728      	20700.8130    	1475    
789  	483.4814      	20683.3209    	1474    
790  	483.8899      	20665.8571    	1474    
791  	484.2985      	20648.4214    	1474    
792  	484.7072      	20631.0139    	1474    
793  	485.1158      	20613.6343    	1474    
794  	485.5245      	20596.2815    	1474    
795  	485.9333      	20578.9578    	1474    
796  	486.3420      	20561.6619    	1474    
797  	486.7508      	20544.3925    	1472    
798  	487.1596      	20527.1522    	1473    
799  	487.5685      	20509.9394    	1473    
800  	487.9774      	20492.7529    	1474    
801  	488.3863      	20475.5952    	1477    
802  	488.7953      	20458.4636    	1473    
803  	489.2042      	20441.3607    	1474    
804  	489.6133      	20424.2838    	1475    
805  	490.0223      	20407.2342    	1479    
806  	490.4314      	20390.2130    	1481    
807  	490.8405      	20373.2176    	1481    
808  	491.2496      	20356.2493    	1482    
809  	491.6588      	20339.3092    	1481    
810  	492.0680      	20322.3947    	1482    
811  	492.4772      	20305.5072    	1482    
812  	492.8865      	20288.6464    	1482    
813  	493.2958      	20271.8123    	1481    
814  	493.7051      	20255.0049    	1481    
815  	494.1145      	20238.2241    	1481    
816  	494.5239      	20221.4698    	1481    
817  	494.9333      	20204.7420    	1481    
818  	495.3428      	20188.0406    	1482    
819  	495.7523      	20171.3655    	1482    
820  	496.1618      	20154.7167    	1482    
821  	496.5713      	20138.0942    	1484    
822  	496.9809      	20121.4966    	1481    
823  	497.3905      	20104.9263    	1481    
824  	497.8002      	20088.3820    	1480    
825  	498.2098      	20071.8637    	1480    
826  	498.6196      	20055.3702    	1480    
827  	499.0293      	20038.9037    	1478    
828  	499.4391      	20022.4617    	1476    
829  	499.8489      	20006.0467    	1474    
830  	500.2587      	19989.6575    	1475    
831  	500.6686      	19973.2925    	1475    
832  	501.0785      	19956.9532    	1475    
833  	501.4884      	19940.6406    	1474    
834  	501.8984      	19924.3522    	1474    
835  	502.3083      	19908.0903    	1473    
836  	502.7184      	19891.8526    	1473    
837  	503.1284      	19875.6402    	1472    
838  	503.5385      	19859.4541    	1473    
839  	503.9486      	19843.2920    	1477    
840  	504.3588      	19827.1550    	1477    
841  	504.7690      	19811.0430    	1477    
842  	505.1792      	19794.9560    	1474    
843  	505.5894      	19778.8950    	1474    
844  	505.9997      	19762.8578    	1473    
845  	506.4100      	19746.8453    	1474    
846  	506.8203      	19730.8576    	1475    
847  	507.2307      	19714.8945    	1473    
848  	507.6411      	19698.9561    	1476    
849  	508.0515      	19683.0422    	1479    
850  	508.4620      	19667.1529    	1480    
851  	508.8725      	19651.2868    	1480    
852  	509.2831      	19635.4463    	1479    
853  	509.6936      	19619.6302    	1479    
854  	510.1042      	19603.8383    	1480    
855  	510.5148      	19588.0707    	1480    
856  	510.9255      	19572.3260    	1481    
857  	511.3362      	19556.6067    	1480    
858  	511.7469      	19540.9114    	1480    
859  	512.1576      	19525.2402    	1483    
860  	512.5684      	19509.5929    	1480    
861  	512.9792      	19493.9683    	1480    
862  	513.3900      	19478.3687    	1480    
863  	513.8009      	19462.7918    	1480    
864  	514.2118      	19447.2397    	1481    
865  	514.6227      	19431.7102    	1479    
866  	515.0337      	19416.2055    	1477    
867  	515.4447      	19400.7232    	1475    
868  	515.8557      	19385.2656    	1476    
869  	516.2668      	19369.8303    	1476    
870  	516.6779      	19354.4173    	1476    
871  	517.0890      	19339.0310    	1476    
872  	517.5002      	19323.6647    	1476    
873  	517.9114      	19308.3227    	1475    
874  	518.3226      	19293.0051    	1475    
875  	518.7338      	19277.7095    	1474    
876  	519.1451      	19262.4381    	1475    
877  	519.5564      	19247.1887    	1475    
878  	519.9678      	19231.9611    	1477    
879  	520.3791      	19216.7599    	1480    
880  	520.7905      	19201.5781    	1477    
881  	521.2020      	19186.4204    	1477    
882  	521.6134      	19171.2865    	1476    
883  	522.0249      	19156.1743    	1477    
884  	522.4365      	19141.0836    	1477    
885  	522.8480      	19126.0167    	1476    
886  	523.2596      	19110.9735    	1479    
887  	523.6712      	19095.9517    	1483    
888  	524.0829      	19080.9513    	1484    
889  	524.4946      	19065.9744    	1484    
890  	524.9063      	19051.0188    	1484    
891  	525.3181      	19036.0867    	1485    
892  	525.7298      	19021.1779    	1485    
893  	526.1416      	19006.2903    	1485    
894  	526.5535      	18991.4237    	1484    
895  	526.9653      	18976.5804    	1483    
896  	527.3773      	18961.7581    	1484    
897  	527.7892      	18946.9589    	1485    
898  	528.2012      	18932.1806    	1485    
899  	528.6132      	18917.4254    	1486    
900  	529.0251      	18902.6931    	1482    
901  	529.4373      	18887.9794    	1483    
902  	529.8493      	18873.2908    	1487    
903  	530.2615      	18858.6207    	1487    
904  	530.6736      	18843.9755    	1487    
905  	531.0858      	18829.3487    	1484    
906  	531.4980      	18814.7467    	1482    
907  	531.9103      	18800.1631    	1482    
908  	532.3225      	18785.6042    	1483    
909  	532.7349      	18771.0636    	1483    
910  	533.1472      	18756.5476    	1483    
911  	533.5596      	18742.0497    	1483    
912  	533.9719      	18727.5764    	1483    
913  	534.3844      	18713.1211    	1483    
914  	534.7969      	18698.6882    	1483    
915  	535.2094      	18684.2774    	1484    
916  	535.6219      	18669.8868    	1484    
917  	536.0344      	18655.5183    	1488    
918  	536.4470      	18641.1698    	1489    
919  	536.8596      	18626.8433    	1490    
920  	537.2723      	18612.5367    	1490    
921  	537.6850      	18598.2500    	1491    
922  	538.0977      	18583.9852    	1491    
923  	538.5104      	18569.7422    	1488    
924  	538.9232      	18555.5190    	1487    
925  	539.3360      	18541.3175    	1488    
926  	539.7488      	18527.1357    	1491    
927  	540.1617      	18512.9734    	1493    
928  	540.5746      	18498.8328    	1493    
929  	540.9875      	18484.7138    	1493    
930  	541.4005      	18470.6142    	1492    
931  	541.8135      	18456.5340    	1492    
932  	542.2266      	18442.4753    	1492    
933  	542.6396      	18428.4380    	1492    
934  	543.0527      	18414.4200    	1492    
935  	543.4658      	18400.4212    	1493    
936  	543.8790      	18386.4437    	1493    
937  	544.2921      	18372.4874    	1494    
938  	544.7054      	18358.5481    	1490    
939  	545.1186      	18344.6321    	1489    
940  	545.5319      	18330.7351    	1492    
941  	545.9452      	18316.8570    	1493    
942  	546.3585      	18303.0000    	1493    
943  	546.7719      	18289.1639    	1491    
944  	547.1853      	18275.3447    	1489    
945  	547.5987      	18261.5483    	1490    
946  	548.0121      	18247.7707    	1492    
947  	548.4257      	18234.0119    	1493    
948  	548.8392      	18220.2738    	1493    
949  	549.2527      	18206.5544    	1494    
950  	549.6663      	18192.8556    	1495    
951  	550.0800      	18179.1754    	1496    
952  	550.4936      	18165.5157    	1498    
953  	550.9072      	18151.8766    	1499    
954  	551.3210      	18138.2539    	1500    
955  	551.7347      	18124.6537    	1504    
956  	552.1484      	18111.0718    	1504    
957  	552.5623      	18097.5083    	1505    
958  	552.9761      	18083.9651    	1505    
959  	553.3900      	18070.4401    	1506    
960  	553.8038      	18056.9353    	1510    
961  	554.2178      	18043.4488    	1507    
962  	554.6317      	18029.9823    	1507    
963  	555.0457      	18016.5340    	1508    
964  	555.4597      	18003.1057    	1512    
965  	555.8738      	17989.6955    	1514    
966  	556.2878      	17976.3052    	1513    
967  	556.7020      	17962.9328    	1513    
968  	557.1161      	17949.5803    	1514    
969  	557.5303      	17936.2458    	1515    
970  	557.9445      	17922.9290    	1514    
971  	558.3587      	17909.6340    	1515    
972  	558.7730      	17896.3547    	1516    
973  	559.1873      	17883.0971    	1515    
974  	559.6016      	17869.8552    	1515    
975  	560.0160      	17856.6329    	1516    
976  	560.4304      	17843.4302    	1512    
977  	560.8448      	17830.2451    	1514    
978  	561.2592      	17817.0794    	1514    
979  	561.6737      	17803.9312    	1515    
980  	562.0882      	17790.8024    	1518    
981  	562.5027      	17777.6910    	1516    
982  	562.9174      	17764.5970    	1517    
983  	563.3319      	17751.5242    	1518    
984  	563.7466      	17738.4667    	1518    
985  	564.1613      	17725.4285    	1518    
986  	564.5759      	17712.4095    	1516    
987  	564.9907      	17699.4076    	1515    
988  	565.4054      	17686.4248    	1515    
989  	565.8202      	17673.4591    	1515    
990  	566.2350      	17660.5105    	1515    
991  	566.6499      	17647.5809    	1516    
992  	567.0648      	17634.6702    	1516    
993  	567.4797      	17621.7765    	1516    
994  	567.8946      	17608.9016    	1517    
995  	568.3096      	17596.0436    	1517    
996  	568.7246      	17583.2025    	1515    
997  	569.1396      	17570.3802    	1516    
998  	569.5547      	17557.5765    	1519    
999  	569.9698      	17544.7896    	1520    
1000 	570.3849      	17532.0213    	1520    
1001 	570.8000      	17519.2697    	1517    
1002 	571.2153      	17506.5348    	1516    
1003 	571.6305      	17493.8183    	1515    
1004 	572.0457      	17481.1204    	1514    
1005 	572.4610      	17468.4389    	1514    
1006 	572.8763      	17455.7741    	1514    
1007 	573.2917      	17443.1275    	1517    
1008 	573.7070      	17430.4993    	1518    
1009 	574.1224      	17417.8875    	1519    
1010 	574.5379      	17405.2921    	1521    
1011 	574.9534      	17392.7148    	1522    
1012 	575.3688      	17380.1558    	1523    
1013 	575.7844      	17367.6130    	1524    
1014 	576.2000      	17355.0865    	1525    
1015 	576.6155      	17342.5781    	1525    
1016 	577.0311      	17330.0876    	1524    
1017 	577.4468      	17317.6133    	1526    
1018 	577.8625      	17305.1551    	1529    
1019 	578.2782      	17292.7149    	1526    
1020 	578.6939      	17280.2925    	1525    
1021 	579.1097      	17267.8861    	1525    
1022 	579.5255      	17255.4957    	1526    
1023 	579.9413      	17243.1231    	1528    
1024 	580.3572      	17230.7682    	1526    
1025 	580.7731      	17218.4292    	1525    
1026 	581.1890      	17206.1060    	1525    
1027 	581.6050      	17193.8005    	1526    
1028 	582.0210      	17181.5107    	1527    
1029 	582.4370      	17169.2386    	1529    
1030 	582.8530      	17156.9839    	1530    
1031 	583.2691      	17144.7449    	1530    
1032 	583.6852      	17132.5216    	1529    
1033 	584.1014      	17120.3157    	1531    
1034 	584.5175      	17108.1271    	1531    
1035 	584.9337      	17095.9542    	1532    
1036 	585.3500      	17083.7967    	1536    
1037 	585.7662      	17071.6566    	1539    
1038 	586.1826      	17059.5319    	1541    
1039 	586.5989      	17047.4244    	1539    
1040 	587.0152      	17035.3341    	1541    
1041 	587.4316      	17023.2591    	1543    
1042 	587.8480      	17011.1995    	1544    
1043 	588.2645      	16999.1570    	1544    
1044 	588.6810      	16987.1297    	1544    
1045 	589.0975      	16975.1195    	1548    
1046 	589.5140      	16963.1262    	1551    
1047 	589.9305      	16951.1481    	1552    
1048 	590.3472      	16939.1852    	1554    
1049 	590.7638      	16927.2391    	1555    
1050 	591.1804      	16915.3099    	1556    
1051 	591.5972      	16903.3940    	1557    
1052 	592.0139      	16891.4966    	1558    
1053 	592.4306      	16879.6142    	1560    
1054 	592.8474      	16867.7467    	1560    
1055 	593.2642      	16855.8960    	1562    
1056 	593.6810      	16844.0619    	1564    
1057 	594.0980      	16832.2409    	1561    
1058 	594.5148      	16820.4382    	1562    
1059 	594.9318      	16808.6504    	1563    
1060 	595.3488      	16796.8773    	1564    
1061 	595.7657      	16785.1207    	1569    
1062 	596.1827      	16773.3806    	1571    
1063 	596.5999      	16761.6535    	1573    
1064 	597.0169      	16749.9444    	1572    
1065 	597.4340      	16738.2500    	1571    
1066 	597.8512      	16726.5702    	1573    
1067 	598.2684      	16714.9067    	1575    
1068 	598.6855      	16703.2594    	1577    
1069 	599.1028      	16691.6250    	1578    
1070 	599.5201      	16680.0084    	1580    
1071 	599.9374      	16668.4064    	1583    
1072 	600.3547      	16656.8187    	1585    
1073 	600.7721      	16645.2472    	1588    
1074 	601.1895      	16633.6917    	1590    
1075 	601.6069      	16622.1505    	1593    
1076 	602.0244      	16610.6237    	1598    
1077 	602.4418      	16599.1129    	1600    
1078 	602.8594      	16587.6163    	1602    
1079 	603.2769      	16576.1356    	1605    
1080 	603.6945      	16564.6709    	1608    
1081 	604.1121      	16553.2203    	1610    
1082 	604.5297      	16541.7838    	1608    
1083 	604.9474      	16530.3631    	1612    
1084 	605.3651      	16518.9566    	1615    
1085 	605.7828      	16507.5657    	1621    
1086 	606.2006      	16496.1906    	1628    
1087 	606.6183      	16484.8295    	1631    
1088 	607.0362      	16473.4823    	1634    
1089 	607.4540      	16462.1508    	1637    
1090 	607.8719      	16450.8348    	1640    
1091 	608.2898      	16439.5327    	1644    
1092 	608.7078      	16428.2445    	1646    
1093 	609.1257      	16416.9718    	1649    
1094 	609.5438      	16405.7130    	1653    
1095 	609.9618      	16394.4695    	1658    
1096 	610.3798      	16383.2415    	1663    
1097 	610.7979      	16372.0271    	1664    
1098 	611.2161      	16360.8265    	1669    
1099 	611.6342      	16349.6412    	1678    
1100 	612.0524      	16338.4712    	1683    
1101 	612.4706      	16327.3148    	1689    
1102 	612.8889      	16316.1720    	1693    
1103 	613.3071      	16305.0445    	1696    
1104 	613.7254      	16293.9320    	1702    
1105 	614.1437      	16282.8331    	1707    
1106 	614.5621      	16271.7477    	1713    
1107 	614.9805      	16260.6774    	1718    
1108 	615.3989      	16249.6221    	1724    
1109 	615.8174      	16238.5803    	1730    
1110 	616.2359      	16227.5518    	1738    
1111 	616.6544      	16216.5383    	1744    
1112 	617.0729      	16205.5397    	1750    
1113 	617.4915      	16194.5545    	1757    
1114 	617.9102      	16183.5825    	1767    
1115 	618.3288      	16172.6254    	1772    
1116 	618.7474      	16161.6831    	1778    
1117 	619.1661      	16150.7540    	1784    
1118 	619.5849      	16139.8381    	1791    
1119 	620.0037      	16128.9370    	1796    
1120 	620.4224      	16118.0506    	1798    
1121 	620.8412      	16107.1772    	1805    
1122 	621.2601      	16096.3170    	1811    
1123 	621.6790      	16085.4713    	1820    
1124 	622.0979      	16074.6403    	1830    
1125 	622.5168      	16063.8223    	1838    
1126 	622.9358      	16053.0189    	1847    
1127 	623.3548      	16042.2283    	1854    
1128 	623.7739      	16031.4508    	1862    
1129 	624.1929      	16020.6877    	1871    
1130 	624.6120      	16009.9390    	1880    
1131 	625.0311      	15999.2032    	1888    
1132 	625.4503      	15988.4817    	1897    
1133 	625.8694      	15977.7731    	1907    
1134 	626.2887      	15967.0773    	1916    
1135 	626.7079      	15956.3957    	1921    
1136 	627.1272      	15945.7285    	1930    
1137 	627.5465      	15935.0739    	1939    
1138 	627.9658      	15924.4336    	1948    
1139 	628.3852      	15913.8059    	1962    
1140 	628.8046      	15903.1909    	1973    
1141 	629.2240      	15892.5915    	1984    
1142 	629.6435      	15882.0032    	1995    
1143 	630.0630      	15871.4290    	2005    
1144 	630.4825      	15860.8689    	2016    
1145 	630.9020      	15850.3213    	2023    
1146 	631.3216      	15839.7877    	2031    
1147 	631.7412      	15829.2665    	2041    
1148 	632.1608      	15818.7593    	2053    
1149 	632.5805      	15808.2646    	2066    
1150 	633.0002      	15797.7837    	2077    
1151 	633.4199      	15787.3153    	2088    
1152 	633.8397      	15776.8606    	2100    
1153 	634.2595      	15766.4184    	2112    
1154 	634.6793      	15755.9884    	2124    
1155 	635.0991      	15745.5737    	2135    
1156 	635.5190      	15735.1697    	2147    
1157 	635.9389      	15724.7810    	2162    
1158 	636.3589      	15714.4030    	2175    
1159 	636.7788      	15704.0402    	2187    
1160 	637.1989      	15693.6880    	2196    
1161 	637.6188      	15683.3510    	2208    
1162 	638.0389      	15673.0246    	2220    
1163 	638.4590      	15662.7133    	2233    
1164 	638.8791      	15652.4140    	2246    
1165 	639.2993      	15642.1268    	2258    
1166 	639.7194      	15631.8531    	2275    
1167 	640.1396      	15621.5914    	2292    
1168 	640.5599      	15611.3431    	2306    
1169 	640.9802      	15601.1068    	2318    
1170 	641.4005      	15590.8839    	2330    
1171 	641.8208      	15580.6730    	2344    
1172 	642.2411      	15570.4754    	2359    
1173 	642.6616      	15560.2896    	2373    
1174 	643.0820      	15550.1172    	2387    
1175 	643.5024      	15539.9581    	2400    
1176 	643.9229      	15529.8107    	2416    
1177 	644.3434      	15519.6751    	2433    
1178 	644.7639      	15509.5528    	2445    
1179 	645.1845      	15499.4422    	2461    
1180 	645.6051      	15489.3447    	2476    
1181 	646.0257      	15479.2604    	2489    
1182 	646.4464      	15469.1864    	2504    
1183 	646.8671      	15459.1268    	2515    
1184 	647.2878      	15449.0789    	2528    
1185 	647.7086      	15439.0426    	2541    
1186 	648.1293      	15429.0193    	2556    
1187 	648.5501      	15419.0090    	2570    
1188 	648.9709      	15409.0103    	2582    
1189 	649.3918      	15399.0230    	2594    
1190 	649.8127      	15389.0488    	2606    
1191 	650.2336      	15379.0874    	2619    
1192 	650.6546      	15369.1374    	2631    
1193 	651.0756      	15359.1989    	2643    
1194 	651.4966      	15349.2733    	2657    
1195 	651.9177      	15339.3604    	2673    
1196 	652.3387      	15329.4589    	2687    
1197 	652.7599      	15319.5688    	2700    
1198 	653.1810      	15309.6914    	2710    
1199 	653.6022      	15299.8267    	2722    
1200 	654.0234      	15289.9734    	2732    
1201 	654.4446      	15280.1327    	2745    
1202 	654.8658      	15270.3032    	2760    
1203 	655.2872      	15260.4849    	2773    
1204 	655.7084      	15250.6807    	2790    
1205 	656.1298      	15240.8863    	2805    
1206 	656.5512      	15231.1044    	2819    
1207 	656.9726      	15221.3351    	2832    
1208 	657.3940      	15211.5768    	2846    
1209 	657.8155      	15201.8311    	2860    
1210 	658.2370      	15192.0965    	2876    
1211 	658.6585      	15182.3743    	2891    
1212 	659.0801      	15172.6631    	2905    
1213 	659.5016      	15162.9644    	2917    
1214 	659.9233      	15153.2766    	2930    
1215 	660.3449      	15143.6013    	2942    
1216 	660.7666      	15133.9368    	2951    
1217 	661.1883      	15124.2847    	2964    
1218 	661.6100      	15114.6435    	2977    
1219 	662.0318      	15105.0146    	2989    
1220 	662.4536      	15095.3966    	3005    
1221 	662.8754      	15085.7908    	3019    
1222 	663.2973      	15076.1958    	3032    
1223 	663.7192      	15066.6130    	3039    
1224 	664.1411      	15057.0410    	3048    
1225 	664.5630      	15047.4812    	3059    
1226 	664.9850      	15037.9321    	3070    
1227 	665.4070      	15028.3952    	3080    
1228 	665.8290      	15018.8703    	3090    
1229 	666.2511      	15009.3561    	3101    
1230 	666.6732      	14999.8526    	3111    
1231 	667.0953      	14990.3611    	3120    
1232 	667.5175      	14980.8803    	3130    
1233 	667.9397      	14971.4114    	3140    
1234 	668.3619      	14961.9545    	3150    
1235 	668.7841      	14952.5082    	3163    
1236 	669.2064      	14943.0724    	3170    
1237 	669.6287      	14933.6485    	3177    
1238 	670.0510      	14924.2365    	3182    
1239 	670.4734      	14914.8351    	3189    
1240 	670.8958      	14905.4440    	3196    
1241 	671.3182      	14896.0649    	3199    
1242 	671.7407      	14886.6975    	3205    
1243 	672.1631      	14877.3405    	3210    
1244 	672.5857      	14867.9939    	3220    
1245 	673.0082      	14858.6591    	3227    
1246 	673.4308      	14849.3360    	3230    
1247 	673.8534      	14840.0232    	3235    
1248 	674.2760      	14830.7221    	3239    
1249 	674.6987      	14821.4313    	3243    
1250 	675.1213      	14812.1522    	3245    
1251 	675.5441      	14802.8833    	3247    
1252 	675.9669      	14793.6247    	3249    
1253 	676.3896      	14784.3790    	3250    
1254 	676.8124      	14775.1422    	3250    
1255 	677.2352      	14765.9182    	3248    
1256 	677.6581      	14756.7031    	3243    
1257 	678.0810      	14747.5008    	3243    
1258 	678.5040      	14738.3073    	3248    
1259 	678.9269      	14729.1267    	3251    
1260 	679.3499      	14719.9547    	3252    
1261 	679.7729      	14710.7956    	3248    
1262 	680.1960      	14701.6452    	3244    
1263 	680.6190      	14692.5074    	3241    
1264 	681.0421      	14683.3798    	3240    
1265 	681.4653      	14674.2621    	3236    
1266 	681.8884      	14665.1558    	3233    
1267 	682.3116      	14656.0594    	3230    
1268 	682.7349      	14646.9743    	3226    
1269 	683.1581      	14637.9005    	3222    
1270 	683.5814      	14628.8366    	3218    
1271 	684.0047      	14619.7826    	3212    
1272 	684.4280      	14610.7398    	3207    
1273 	684.8514      	14601.7069    	3205    
1274 	685.2748      	14592.6851    	3200    
1275 	685.6982      	14583.6745    	3196    
1276 	686.1217      	14574.6738    	3192    
1277 	686.5452      	14565.6828    	3188    
1278 	686.9688      	14556.7029    	3183    
1279 	687.3923      	14547.7341    	3173    
1280 	687.8159      	14538.7750    	3164    
1281 	688.2394      	14529.8270    	3156    
1282 	688.6631      	14520.8887    	3152    
1283 	689.0868      	14511.9601    	3148    
1284 	689.5104      	14503.0437    	3143    
1285 	689.9342      	14494.1357    	3137    
1286 	690.3580      	14485.2387    	3132    
1287 	690.7817      	14476.3526    	3128    
1288 	691.2056      	14467.4761    	3122    
1289 	691.6294      	14458.6105    	3116    
1290 	692.0533      	14449.7544    	3110    
1291 	692.4772      	14440.9092    	3103    
1292 	692.9011      	14432.0736    	3096    
1293 	693.3251      	14423.2488    	3089    
1294 	693.7491      	14414.4334    	3077    
1295 	694.1731      	14405.6289    	3068    
1296 	694.5972      	14396.8338    	3059    
1297 	695.0212      	14388.0495    	3051    
1298 	695.4453      	14379.2759    	3047    
1299 	695.8695      	14370.5104    	3040    
1300 	696.2936      	14361.7569    	3034    
1301 	696.7178      	14353.0128    	3027    
1302 	697.1421      	14344.2781    	3019    
1303 	697.5663      	14335.5540    	3010    
1304 	697.9906      	14326.8405    	2997    
1305 	698.4149      	14318.1363    	2984    
1306 	698.8393      	14309.4415    	2974    
1307 	699.2637      	14300.7572    	2963    
1308 	699.6880      	14292.0835    	2953    
1309 	700.1125      	14283.4190    	2945    
1310 	700.5370      	14274.7638    	2936    
1311 	700.9615      	14266.1190    	2927    
1312 	701.3860      	14257.4847    	2917    
1313 	701.8105      	14248.8597    	2909    
1314 	702.2351      	14240.2450    	2900    
1315 	702.6597      	14231.6396    	2894    
1316 	703.0844      	14223.0433    	2889    
1317 	703.5090      	14214.4586    	2881    
1318 	703.9338      	14205.8818    	2873    
1319 	704.3585      	14197.3165    	2861    
1320 	704.7833      	14188.7592    	2851    
1321 	705.2080      	14180.2133    	2841    
1322 	705.6329      	14171.6753    	2832    
1323 	706.0577      	14163.1489    	2824    
1324 	706.4826      	14154.6302    	2815    
1325 	706.9075      	14146.1230    	2811    
1326 	707.3324      	14137.6247    	2805    
1327 	707.7574      	14129.1355    	2797    
1328 	708.1824      	14120.6565    	2788    
1329 	708.6074      	14112.1864    	2779    
1330 	709.0325      	14103.7264    	2768    
1331 	709.4575      	14095.2766    	2759    
1332 	709.8826      	14086.8357    	2750    
1333 	710.3078      	14078.4038    	2743    
1334 	710.7330      	14069.9818    	2734    
1335 	711.1581      	14061.5700    	2726    
1336 	711.5834      	14053.1670    	2720    
1337 	712.0087      	14044.7729    	2708    
1338 	712.4340      	14036.3887    	2699    
1339 	712.8593      	14028.0146    	2690    
1340 	713.2846      	14019.6492    	2682    
1341 	713.7100      	14011.2939    	2674    
1342 	714.1354      	14002.9473    	2664    
1343 	714.5609      	13994.6094    	2653    
1344 	714.9863      	13986.2826    	2645    
1345 	715.4118      	13977.9634    	2639    
1346 	715.8373      	13969.6540    	2632    
1347 	716.2629      	13961.3546    	2627    
1348 	716.6885      	13953.0637    	2621    
1349 	717.1141      	13944.7828    	2614    
1350 	717.5397      	13936.5116    	2606    
1351 	717.9654      	13928.2479    	2599    
1352 	718.3911      	13919.9952    	2591    
1353 	718.8168      	13911.7511    	2584    
1354 	719.2426      	13903.5155    	2578    
1355 	719.6683      	13895.2897    	2570    
1356 	720.0942      	13887.0724    	2562    
1357 	720.5200      	13878.8649    	2551    
1358 	720.9459      	13870.6670    	2545    
1359 	721.3718      	13862.4777    	2538    
1360 	721.7977      	13854.2968    	2533    
1361 	722.2237      	13846.1256    	2529    
1362 	722.6497      	13837.9641    	2516    
1363 	723.0757      	13829.8109    	2501    
1364 	723.5018      	13821.6663    	2480    
1365 	723.9278      	13813.5323    	2457    
1366 	724.3539      	13805.4056    	2440    
1367 	724.7801      	13797.2885    	2430    
1368 	725.2062      	13789.1809    	2421    
1369 	725.6324      	13781.0817    	2411    
1370 	726.0587      	13772.9919    	2399    
1371 	726.4849      	13764.9106    	2387    
1372 	726.9112      	13756.8386    	2378    
1373 	727.3375      	13748.7750    	2376    
1374 	727.7639      	13740.7209    	2373    
1375 	728.1902      	13732.6750    	2361    
1376 	728.6166      	13724.6385    	2352    
1377 	729.0430      	13716.6115    	2342    
1378 	729.4695      	13708.5915    	2335    
1379 	729.8960      	13700.5821    	2329    
1380 	730.3225      	13692.5808    	2321    
1381 	730.7491      	13684.5878    	2310    
1382 	731.1757      	13676.6041    	2294    
1383 	731.6022      	13668.6297    	2283    
1384 	732.0289      	13660.6634    	2276    
1385 	732.4556      	13652.7053    	2271    
1386 	732.8823      	13644.7565    	2268    
1387 	733.3090      	13636.8169    	2265    
1388 	733.7357      	13628.8854    	2263    
1389 	734.1625      	13620.9631    	2260    
1390 	734.5893      	13613.0489    	2258    
1391 	735.0161      	13605.1439    	2258    
1392 	735.4430      	13597.2470    	2258    
1393 	735.8699      	13589.3592    	2257    
1394 	736.2968      	13581.4794    	2252    
1395 	736.7238      	13573.6087    	2245    
1396 	737.1508      	13565.7461    	2244    
1397 	737.5778      	13557.8925    	2243    
1398 	738.0048      	13550.0470    	2241    
1399 	738.4319      	13542.2105    	2236    
1400 	738.8590      	13534.3819    	2229    
1401 	739.2861      	13526.5624    	2227    
1402 	739.7133      	13518.7519    	2225    
1403 	740.1404      	13510.9493    	2228    
1404 	740.5677      	13503.1546    	2233    
1405 	740.9949      	13495.3689    	2240    
1406 	741.4222      	13487.5922    	2248    
1407 	741.8495      	13479.8233    	2254    
1408 	742.2769      	13472.0622    	2254    
1409 	742.7042      	13464.3101    	2247    
1410 	743.1316      	13456.5669    	2239    
1411 	743.5590      	13448.8315    	2232    
1412 	743.9865      	13441.1050    	2224    
1413 	744.4139      	13433.3863    	2218    
1414 	744.8414      	13425.6764    	2212    
1415 	745.2690      	13417.9742    	2201    
1416 	745.6965      	13410.2809    	2194    
1417 	746.1241      	13402.5953    	2191    
1418 	746.5518      	13394.9186    	2184    
1419 	746.9794      	13387.2495    	2179    
1420 	747.4071      	13379.5892    	2171    
1421 	747.8348      	13371.9365    	2163    
1422 	748.2626      	13364.2926    	2156    
1423 	748.6903      	13356.6575    	2149    
1424 	749.1181      	13349.0300    	2143    
1425 	749.5460      	13341.4101    	2138    
1426 	749.9738      	13333.7988    	2134    
1427 	750.4017      	13326.1963    	2131    
1428 	750.8296      	13318.6014    	2128    
1429 	751.2575      	13311.0151    	2123    
1430 	751.6855      	13303.4363    	2118    
1431 	752.1135      	13295.8651    	2115    
1432 	752.5415      	13288.3036    	2115    
1433 	752.9696      	13280.7486    	2112    
1434 	753.3977      	13273.2021    	2109    
1435 	753.8258      	13265.6642    	2104    
1436 	754.2540      	13258.1338    	2102    
1437 	754.6821      	13250.6119    	2100    
1438 	755.1103      	13243.0986    	2095    
1439 	755.5386      	13235.5916    	2094    
1440 	755.9668      	13228.0942    	2094    
1441 	756.3951      	13220.6042    	2097    
1442 	756.8234      	13213.1217    	2099    
1443 	757.2518      	13205.6476    	2099    
1444 	757.6801      	13198.1819    	2099    
1445 	758.1085      	13190.7237    	2099    
1446 	758.5370      	13183.2728    	2099    
1447 	758.9655      	13175.8303    	2100    
1448 	759.3939      	13168.3962    	2100    
1449 	759.8224      	13160.9694    	2102    
1450 	760.2510      	13153.5510    	2106    
1451 	760.6796      	13146.1399    	2109    
1452 	761.1082      	13138.7372    	2110    
1453 	761.5368      	13131.3417    	2109    
1454 	761.9655      	13123.9546    	2112    
1455 	762.3942      	13116.5747    	2119    
1456 	762.8229      	13109.2031    	2123    
1457 	763.2516      	13101.8387    	2125    
1458 	763.6804      	13094.4826    	2128    
1459 	764.1093      	13087.1338    	2132    
1460 	764.5381      	13079.7931    	2135    
1461 	764.9669      	13072.4607    	2139    
1462 	765.3958      	13065.1355    	2143    
1463 	765.8248      	13057.8174    	2146    
1464 	766.2537      	13050.5076    	2150    
1465 	766.6827      	13043.2059    	2155    
1466 	767.1117      	13035.9113    	2162    
1467 	767.5408      	13028.6238    	2168    
1468 	767.9698      	13021.3445    	2174    
1469 	768.3989      	13014.0734    	2180    
1470 	768.8281      	13006.8093    	2187    
1471 	769.2572      	12999.5533    	2194    
1472 	769.6864      	12992.3044    	2203    
1473 	770.1156      	12985.0635    	2211    
1474 	770.5449      	12977.8297    	2220    
1475 	770.9741      	12970.6040    	2232    
1476 	771.4034      	12963.3863    	2238    
1477 	771.8327      	12956.1756    	2247    
1478 	772.2621      	12948.9719    	2257    
1479 	772.6915      	12941.7761    	2267    
1480 	773.1209      	12934.5874    	2276    
1481 	773.5504      	12927.4067    	2287    
1482 	773.9798      	12920.2339    	2298    
1483 	774.4093      	12913.0680    	2309    
1484 	774.8388      	12905.9101    	2323    
1485 	775.2684      	12898.7591    	2336    
1486 	775.6980      	12891.6151    	2348    
1487 	776.1276      	12884.4799    	2359    
1488 	776.5573      	12877.3506    	2369    
1489 	776.9869      	12870.2302    	2382    
1490 	777.4166      	12863.1157    	2394    
1491 	777.8463      	12856.0100    	2406    
1492 	778.2761      	12848.9112    	2418    
1493 	778.7059      	12841.8192    	2430    
1494 	779.1357      	12834.7350    	2444    
1495 	779.5656      	12827.6576    	2460    
1496 	779.9954      	12820.5881    	2471    
1497 	780.4253      	12813.5263    	2486    
1498 	780.8552      	12806.4713    	2501    
1499 	781.2852      	12799.4230    	2515    
1500 	781.7152      	12792.3825    	2530    
1501 	782.1452      	12785.3498    	2542    
1502 	782.5753      	12778.3238    	2554    
1503 	783.0053      	12771.3055    	2567    
1504 	783.4354      	12764.2939    	2583    
1505 	783.8655      	12757.2900    	2597    
1506 	784.2957      	12750.2928    	2612    
1507 	784.7259      	12743.3033    	2627    
1508 	785.1561      	12736.3204    	2643    
1509 	785.5864      	12729.3452    	2660    
1510 	786.0167      	12722.3766    	2676    
1511 	786.4470      	12715.4157    	2691    
1512 	786.8773      	12708.4623    	2706    
1513 	787.3076      	12701.5156    	2724    
1514 	787.7380      	12694.5755    	2738    
1515 	788.1685      	12687.6430    	2753    
1516 	788.5989      	12680.7180    	2765    
1517 	789.0294      	12673.7996    	2780    
1518 	789.4598      	12666.8888    	2793    
1519 	789.8904      	12659.9845    	2808    
1520 	790.3210      	12653.0868    	2823    
1521 	790.7515      	12646.1975    	2838    
1522 	791.1822      	12639.3138    	2858    
1523 	791.6128      	12632.4386    	2877    
1524 	792.0435      	12625.5699    	2895    
1525 	792.4742      	12618.7076    	2910    
1526 	792.9049      	12611.8528    	2926    
1527 	793.3357      	12605.0045    	2942    
1528 	793.7665      	12598.1636    	2961    
1529 	794.1973      	12591.3302    	2981    
1530 	794.6281      	12584.5032    	3000    
1531 	795.0590      	12577.6826    	3020    
1532 	795.4899      	12570.8694    	3042    
1533 	795.9208      	12564.0636    	3066    
1534 	796.3518      	12557.2642    	3085    
1535 	796.7828      	12550.4721    	3108    
1536 	797.2138      	12543.6864    	3131    
1537 	797.6448      	12536.9081    	3153    
1538 	798.0759      	12530.1361    	3176    
1539 	798.5070      	12523.3714    	3198    
1540 	798.9382      	12516.6131    	3219    
1541 	799.3693      	12509.8621    	3243    
1542 	799.8005      	12503.1174    	3270    
1543 	800.2318      	12496.3799    	3297    
1544 	800.6630      	12489.6498    	3325    
1545 	801.0942      	12482.9259    	3353    
1546 	801.5256      	12476.2083    	3382    
1547 	801.9568      	12469.4989    	3413    
1548 	802.3882      	12462.7947    	3443    
1549 	802.8196      	12456.0978    	3472    
1550 	803.2510      	12449.4081    	3504    
1551 	803.6825      	12442.7247    	3535    
1552 	804.1140      	12436.0484    	3568    
1553 	804.5455      	12429.3783    	3605    
1554 	804.9770      	12422.7153    	3636    
1555 	805.4086      	12416.0586    	3671    
1556 	805.8401      	12409.4090    	3706    
1557 	806.2717      	12402.7665    	3742    
1558 	806.7034      	12396.1302    	3780    
1559 	807.1351      	12389.5000    	3817    
1560 	807.5668      	12382.8770    	3858    
1561 	807.9985      	12376.2610    	3900    
1562 	808.4302      	12369.6511    	3940    
1563 	808.8621      	12363.0474    	3979    
1564 	809.2938      	12356.4517    	4016    
1565 	809.7257      	12349.8611    	4056    
1566 	810.1575      	12343.2784    	4098    
1567 	810.5895      	12336.7010    	4141    
1568 	811.0214      	12330.1314    	4186    
1569 	811.4534      	12323.5670    	4231    
1570 	811.8853      	12317.0106    	4277    
1571 	812.3173      	12310.4601    	4322    
1572 	812.7494      	12303.9157    	4369    
1573 	813.1815      	12297.3783    	4418    
1574 	813.6135      	12290.8478    	4464    
1575 	814.0457      	12284.3233    	4515    
1576 	814.4778      	12277.8048    	4572    
1577 	814.9100      	12271.2932    	4626    
1578 	815.3422      	12264.7886    	4681    
1579 	815.7745      	12258.2899    	4735    
1580 	816.2067      	12251.7981    	4790    
1581 	816.6390      	12245.3122    	4849    
1582 	817.0714      	12238.8332    	4910    
1583 	817.5037      	12232.3602    	4971    
1584 	817.9361      	12225.8940    	5033    
1585 	818.3685      	12219.4346    	5098    
1586 	818.8009      	12212.9812    	5164    
1587 	819.2334      	12206.5336    	5231    
1588 	819.6659      	12200.0928    	5299    
1589 	820.0984      	12193.6589    	5368    
1590 	820.5309      	12187.2308    	5440    
1591 	820.9636      	12180.8086    	5517    
1592 	821.3961      	12174.3940    	5592    
1593 	821.8288      	12167.9844    	5668    
1594 	822.2614      	12161.5825    	5744    
1595 	822.6942      	12155.1855    	5822    
1596 	823.1268      	12148.7961    	5903    
1597 	823.5596      	12142.4116    	5981    
1598 	823.9924      	12136.0347    	6066    
1599 	824.4252      	12129.6636    	6153    
1600 	824.8580      	12123.2983    	6245    
1601 	825.2909      	12116.9397    	6338    
1602 	825.7238      	12110.5878    	6431    
1603 	826.1567      	12104.2416    	6525    
1604 	826.5897      	12097.9011    	6620    
1605 	827.0226      	12091.5682    	6718    
1606 	827.4556      	12085.2402    	6814    
1607 	827.8887      	12078.9187    	6912    
1608 	828.3217      	12072.6039    	7012    
1609 	828.7548      	12066.2957    	7114    
1610 	829.1879      	12059.9923    	7216    
1611 	829.6210      	12053.6963    	7316    
1612 	830.0542      	12047.4061    	7415    
1613 	830.4874      	12041.1215    	7519    
1614 	830.9207      	12034.8435    	7624    
1615 	831.3539      	12028.5720    	7727    
1616 	831.7872      	12022.3061    	7832    
1617 	832.2205      	12016.0459    	7932    
1618 	832.6539      	12009.7923    	8032    
1619 	833.0872      	12003.5451    	8135    
1620 	833.5206      	11997.3035    	8236    
1621 	833.9540      	11991.0685    	8338    
1622 	834.3875      	11984.8390    	8437    
1623 	834.8210      	11978.6160    	8536    
1624 	835.2545      	11972.3995    	8634    
1625 	835.6880      	11966.1885    	8732    
1626 	836.1216      	11959.9831    	8830    
1627 	836.5552      	11953.7841    	8926    
1628 	836.9888      	11947.5916    	9021    
1629 	837.4224      	11941.4046    	9118    
1630 	837.8561      	11935.2231    	9215    
1631 	838.2899      	11929.0481    	9314    
1632 	838.7236      	11922.8794    	9411    
1633 	839.1573      	11916.7162    	9507    
1634 	839.5911      	11910.5594    	9603    
1635 	840.0250      	11904.4081    	9693    
1636 	840.4588      	11898.2632    	9785    
1637 	840.8926      	11892.1246    	9872    
1638 	841.3266      	11885.9905    	9955    
1639 	841.7605      	11879.8637    	10030   
1640 	842.1945      	11873.7423    	10099   
1641 	842.6285      	11867.6264    	10163   
1642 	843.0624      	11861.5177    	10220   
1643 	843.4965      	11855.4134    	10278   
1644 	843.9306      	11849.3155    	10332   
1645 	844.3647      	11843.2239    	10386   
1646 	844.7988      	11837.1376    	10438   
1647 	845.2330      	11831.0576    	10489   
1648 	845.6672      	11824.9830    	10547   
1649 	846.1014      	11818.9147    	10610   
1650 	846.5356      	11812.8525    	10669   
1651 	846.9698      	11806.7957    	10726   
1652 	847.4042      	11800.7443    	10786   
1653 	847.8385      	11794.6991    	10851   
1654 	848.2728      	11788.6601    	10922   
1655 	848.7072      	11782.6264    	10994   
1656 	849.1416      	11776.5988    	11073   
1657 	849.5760      	11770.5766    	11157   
1658 	850.0106      	11764.5597    	11253   
1659 	850.4450      	11758.5498    	11363   
1660 	850.8795      	11752.5452    	11481   
1661 	851.3141      	11746.5459    	11608   
1662 	851.7487      	11740.5527    	11753   
1663 	852.1833      	11734.5648    	11915   
1664 	852.6179      	11728.5830    	12087   
1665 	853.0526      	11722.6072    	12273   
1666 	853.4872      	11716.6367    	12472   
1667 	853.9220      	11710.6715    	12685   
1668 	854.3567      	11704.7132    	12909   
1669 	854.7915      	11698.7592    	13143   
1670 	855.2263      	11692.8122    	13382   
1671 	855.6611      	11686.8695    	13633   
1672 	856.0959      	11680.9337    	13900   
1673 	856.5308      	11675.0031    	14177   
1674 	856.9658      	11669.0777    	14463   
1675 	857.4007      	11663.1583    	14757   
1676 	857.8357      	11657.2440    	15061   
1677 	858.2707      	11651.3358    	15371   
1678 	858.7057      	11645.4335    	15692   
1679 	859.1407      	11639.5364    	16025   
1680 	859.5758      	11633.6453    	16360   
1681 	860.0109      	11627.7593    	16704   
1682 	860.4460      	11621.8792    	17057   
1683 	860.8812      	11616.0043    	17414   
1684 	861.3164      	11610.1353    	17775   
1685 	861.7516      	11604.2714    	18135   
1686 	862.1869      	11598.4134    	18494   
1687 	862.6221      	11592.5614    	18855   
1688 	863.0574      	11586.7144    	19225   
1689 	863.4928      	11580.8725    	19601   
1690 	863.9282      	11575.0365    	19977   
1691 	864.3635      	11569.2064    	20356   
1692 	864.7990      	11563.3813    	20737   
1693 	865.2344      	11557.5621    	21115   
1694 	865.6699      	11551.7479    	21495   
1695 	866.1053      	11545.9396    	21876   
1696 	866.5409      	11540.1363    	22254   
1697 	866.9764      	11534.3388    	22632   
1698 	867.4120      	11528.5472    	23001   
1699 	867.8476      	11522.7605    	23367   
1700 	868.2833      	11516.9789    	23735   
1701 	868.7189      	11511.2030    	24107   
1702 	869.1546      	11505.4330    	24474   
1703 	869.5903      	11499.6679    	24830   
1704 	870.0261      	11493.9086    	25181   
1705 	870.4619      	11488.1542    	25526   
1706 	870.8976      	11482.4056    	25870   
1707 	871.3335      	11476.6620    	26217   
1708 	871.7693      	11470.9241    	26560   
1709 	872.2053      	11465.1911    	26894   
1710 	872.6412      	11459.4639    	27224   
1711 	873.0771      	11453.7423    	27536   
1712 	873.5131      	11448.0257    	27827   
1713 	873.9490      	11442.3148    	28085   
1714 	874.3851      	11436.6088    	28304   
1715 	874.8212      	11430.9077    	28493   
1716 	875.2572      	11425.2130    	28651   
1717 	875.6934      	11419.5225    	28786   
1718 	876.1295      	11413.8384    	28891   
1719 	876.5656      	11408.1591    	28981   
1720 	877.0018      	11402.4847    	29048   
1721 	877.4380      	11396.8160    	29090   
1722 	877.8743      	11391.1529    	29120   
1723 	878.3105      	11385.4946    	29142   
1724 	878.7469      	11379.8412    	29173   
1725 	879.1832      	11374.1933    	29227   
1726 	879.6196      	11368.5511    	29296   
1727 	880.0560      	11362.9137    	29375   
1728 	880.4924      	11357.2818    	29462   
1729 	880.9288      	11351.6556    	29554   
1730 	881.3653      	11346.0333    	29639   
1731 	881.8018      	11340.4174    	29708   
1732 	882.2383      	11334.8063    	29792   
1733 	882.6749      	11329.1999    	29885   
1734 	883.1115      	11323.5991    	29959   
1735 	883.5480      	11318.0038    	30028   
1736 	883.9847      	11312.4132    	30117   
1737 	884.4213      	11306.8282    	30228   
1738 	884.8580      	11301.2479    	30340   
1739 	885.2947      	11295.6731    	30478   
1740 	885.7315      	11290.1031    	30658   
1741 	886.1683      	11284.5385    	30844   
1742 	886.6050      	11278.9794    	31034   
1743 	887.0419      	11273.4250    	31248   
1744 	887.4788      	11267.8753    	31494   
1745 	887.9156      	11262.3311    	31743   
1746 	888.3525      	11256.7923    	31976   
1747 	888.7895      	11251.2582    	32230   
1748 	889.2264      	11245.7295    	32506   
1749 	889.6635      	11240.2055    	32791   
1750 	890.1005      	11234.6869    	33087   
1751 	890.5375      	11229.1729    	33404   
1752 	890.9746      	11223.6644    	33756   
1753 	891.4117      	11218.1613    	34127   
1754 	891.8488      	11212.6628    	34531   
1755 	892.2860      	11207.1689    	34994   
1756 	892.7232      	11201.6804    	35486   
1757 	893.1604      	11196.1972    	35976   
1758 	893.5977      	11190.7187    	36459   
1759 	894.0349      	11185.2455    	36962   
1760 	894.4722      	11179.7769    	37462   
1761 	894.9095      	11174.3137    	37938   
1762 	895.3469      	11168.8558    	38419   
1763 	895.7842      	11163.4025    	38902   
1764 	896.2217      	11157.9537    	39366   
1765 	896.6591      	11152.5102    	39801   
1766 	897.0966      	11147.0721    	40219   
1767 	897.5341      	11141.6385    	40625   
1768 	897.9716      	11136.2102    	40999   
1769 	898.4091      	11130.7864    	41334   
1770 	898.8467      	11125.3679    	41639   
1771 	899.2843      	11119.9539    	41921   
1772 	899.7219      	11114.5452    	42183   
1773 	900.1596      	11109.1410    	42416   
1774 	900.5973      	11103.7421    	42621   
1775 	901.0350      	11098.3483    	42798   
1776 	901.4727      	11092.9591    	42960   
1777 	901.9105      	11087.5751    	43118   
1778 	902.3483      	11082.1956    	43269   
1779 	902.7861      	11076.8213    	43416   
1780 	903.2239      	11071.4515    	43566   
1781 	903.6618      	11066.0868    	43725   
1782 	904.0997      	11060.7267    	43890   
1783 	904.5377      	11055.3717    	44050   
1784 	904.9756      	11050.0211    	44209   
1785 	905.4136      	11044.6757    	44381   
1786 	905.8516      	11039.3355    	44563   
1787 	906.2897      	11033.9997    	44746   
1788 	906.7277      	11028.6691    	44923   
1789 	907.1658      	11023.3429    	45092   
1790 	907.6039      	11018.0218    	45271   
1791 	908.0421      	11012.7051    	45464   
1792 	908.4803      	11007.3935    	45663   
1793 	908.9185      	11002.0871    	45869   
1794 	909.3567      	10996.7850    	46087   
1795 	909.7950      	10991.4873    	46310   
1796 	910.2333      	10986.1947    	46527   
1797 	910.6716      	10980.9072    	46753   
1798 	911.1099      	10975.6241    	46989   
1799 	911.5483      	10970.3460    	47230   
1800 	911.9867      	10965.0723    	47475   
1801 	912.4251      	10959.8036    	47717   
1802 	912.8636      	10954.5393    	47961   
1803 	913.3021      	10949.2800    	48213   
1804 	913.7405      	10944.0258    	48482   
1805 	914.1791      	10938.7758    	48755   
1806 	914.6177      	10933.5302    	49018   
1807 	915.0562      	10928.2904    	49266   
1808 	915.4949      	10923.0541    	49518   
1809 	915.9335      	10917.8235    	49782   
1810 	916.3722      	10912.5965    	50048   
1811 	916.8109      	10907.3753    	50297   
1812 	917.2496      	10902.1583    	50533   
1813 	917.6884      	10896.9455    	50765   
1814 	918.1271      	10891.7378    	50993   
1815 	918.5659      	10886.5350    	51212   
1816 	919.0048      	10881.3364    	51428   
1817 	919.4437      	10876.1422    	51664   
1818 	919.8825      	10870.9535    	51913   
1819 	920.3215      	10865.7684    	52172   
1820 	920.7604      	10860.5890    	52430   
1821 	921.1993      	10855.4138    	52696   
1822 	921.6384      	10850.2427    	52970   
1823 	922.0774      	10845.0767    	53234   
1824 	922.5164      	10839.9155    	53492   
1825 	922.9555      	10834.7585    	53748   
1826 	923.3947      	10829.6057    	53999   
1827 	923.8337      	10824.4585    	54241   
1828 	924.2729      	10819.3148    	54487   
1829 	924.7121      	10814.1767    	54739   
1830 	925.1513      	10809.0427    	54987   
1831 	925.5906      	10803.9129    	55227   
1832 	926.0298      	10798.7880    	55480   
1833 	926.4692      	10793.6672    	55743   
1834 	926.9085      	10788.5513    	56009   
1835 	927.3478      	10783.4402    	56278   
1836 	927.7872      	10778.3333    	56547   
1837 	928.2266      	10773.2312    	56821   
1838 	928.6661      	10768.1332    	57082   
1839 	929.1055      	10763.0400    	57331   
1840 	929.5450      	10757.9517    	57576   
1841 	929.9846      	10752.8667    	57833   
1842 	930.4241      	10747.7873    	58089   
1843 	930.8636      	10742.7119    	58328   
1844 	931.3032      	10737.6414    	58565   
1845 	931.7429      	10732.5749    	58788   
1846 	932.1825      	10727.5132    	59006   
1847 	932.6222      	10722.4555    	59224   
1848 	933.0619      	10717.4027    	59445   
1849 	933.5016      	10712.3539    	59668   
1850 	933.9414      	10707.3098    	59888   
1851 	934.3812      	10702.2698    	60102   
1852 	934.8210      	10697.2346    	60305   
1853 	935.2609      	10692.2040    	60496   
1854 	935.7007      	10687.1776    	60694   
1855 	936.1406      	10682.1558    	60880   
1856 	936.5806      	10677.1380    	61041   
1857 	937.0205      	10672.1250    	61186   
1858 	937.4605      	10667.1160    	61321   
1859 	937.9005      	10662.1117    	61460   
1860 	938.3405      	10657.1120    	61589   
1861 	938.7806      	10652.1164    	61698   
1862 	939.2207      	10647.1248    	61785   
1863 	939.6608      	10642.1385    	61863   
1864 	940.1010      	10637.1555    	61937   
1865 	940.5411      	10632.1778    	62003   
1866 	940.9813      	10627.2035    	62073   
1867 	941.4215      	10622.2345    	62135   
1868 	941.8618      	10617.2694    	62192   
1869 	942.3021      	10612.3083    	62241   
1870 	942.7424      	10607.3518    	62284   
1871 	943.1827      	10602.4000    	62325   
1872 	943.6230      	10597.4521    	62361   
1873 	944.0634      	10592.5088    	62411   
1874 	944.5038      	10587.5694    	62468   
1875 	944.9443      	10582.6346    	62501   
1876 	945.3848      	10577.7038    	62532   
1877 	945.8253      	10572.7775    	62569   
1878 	946.2657      	10567.8558    	62614   
1879 	946.7063      	10562.9381    	62649   
1880 	947.1469      	10558.0242    	62658   
1881 	947.5875      	10553.1149    	62668   
1882 	948.0281      	10548.2101    	62682   
1883 	948.4688      	10543.3093    	62703   
1884 	948.9095      	10538.4129    	62721   
1885 	949.3502      	10533.5212    	62734   
1886 	949.7909      	10528.6333    	62721   
1887 	950.2317      	10523.7492    	62695   
1888 	950.6725      	10518.8697    	62669   
1889 	951.1133      	10513.9947    	62629   
1890 	951.5541      	10509.1235    	62603   
1891 	951.9950      	10504.2569    	62586   
1892 	952.4359      	10499.3941    	62562   
1893 	952.8768      	10494.5358    	62549   
1894 	953.3178      	10489.6813    	62545   
1895 	953.7588      	10484.8313    	62540   
1896 	954.1998      	10479.9858    	62533   
1897 	954.6408      	10475.1441    	62519   
1898 	955.0819      	10470.3062    	62510   
1899 	955.5229      	10465.4734    	62505   
1900 	955.9641      	10460.6437    	62518   
1901 	956.4052      	10455.8192    	62539   
1902 	956.8464      	10450.9978    	62538   
1903 	957.2876      	10446.1815    	62523   
1904 	957.7288      	10441.3690    	62494   
1905 	958.1701      	10436.5602    	62450   
1906 	958.6113      	10431.7565    	62400   
1907 	959.0527      	10426.9560    	62374   
1908 	959.4940      	10422.1598    	62352   
1909 	959.9354      	10417.3681    	62324   
1910 	960.3767      	10412.5807    	62296   
1911 	960.8182      	10407.7964    	62242   
1912 	961.2596      	10403.0172    	62164   
1913 	961.7010      	10398.2417    	62053   
1914 	962.1426      	10393.4700    	61902   
1915 	962.5840      	10388.7032    	61720   
1916 	963.0256      	10383.9396    	61506   
1917 	963.4672      	10379.1803    	61268   
1918 	963.9088      	10374.4253    	61030   
1919 	964.3504      	10369.6747    	60780   
1920 	964.7921      	10364.9278    	60483   
1921 	965.2338      	10360.1846    	60141   
1922 	965.6755      	10355.4457    	59784   
1923 	966.1172      	10350.7112    	59415   
1924 	966.5590      	10345.9803    	59038   
1925 	967.0007      	10341.2538    	58654   
1926 	967.4426      	10336.5309    	58260   
1927 	967.8844      	10331.8124    	57846   
1928 	968.3263      	10327.0974    	57398   
1929 	968.7682      	10322.3868    	56921   
1930 	969.2101      	10317.6805    	56419   
1931 	969.6520      	10312.9779    	55911   
1932 	970.0941      	10308.2788    	55396   
1933 	970.5360      	10303.5847    	54865   
1934 	970.9781      	10298.8936    	54338   
1935 	971.4201      	10294.2074    	53807   
1936 	971.8622      	10289.5241    	53276   
1937 	972.3043      	10284.8458    	52742   
1938 	972.7465      	10280.1711    	52192   
1939 	973.1886      	10275.5006    	51630   
1940 	973.6308      	10270.8337    	51051   
1941 	974.0731      	10266.1704    	50486   
1942 	974.5153      	10261.5120    	49924   
1943 	974.9576      	10256.8565    	49347   
1944 	975.3998      	10252.2059    	48773   
1945 	975.8422      	10247.5589    	48198   
1946 	976.2845      	10242.9154    	47616   
1947 	976.7269      	10238.2761    	47018   
1948 	977.1693      	10233.6411    	46425   
1949 	977.6118      	10229.0096    	45841   
1950 	978.0542      	10224.3823    	45259   
1951 	978.4967      	10219.7585    	44669   
1952 	978.9392      	10215.1389    	44061   
1953 	979.3818      	10210.5229    	43442   
1954 	979.8243      	10205.9110    	42824   
1955 	980.2669      	10201.3033    	42210   
1956 	980.7095      	10196.6991    	41583   
1957 	981.1522      	10192.0990    	40932   
1958 	981.5948      	10187.5025    	40279   
1959 	982.0375      	10182.9102    	39636   
1960 	982.4803      	10178.3213    	38976   
1961 	982.9230      	10173.7365    	38301   
1962 	983.3658      	10169.1553    	37620   
1963 	983.8087      	10164.5782    	36938   
1964 	984.2515      	10160.0052    	36245   
1965 	984.6943      	10155.4357    	35545   
1966 	985.1372      	10150.8703    	34836   
1967 	985.5801      	10146.3084    	34120   
1968 	986.0231      	10141.7505    	33406   
1969 	986.4661      	10137.1962    	32677   
1970 	986.9091      	10132.6459    	31941   
1971 	987.3521      	10128.0997    	31206   
1972 	987.7951      	10123.5569    	30481   
1973 	988.2382      	10119.0183    	29760   
1974 	988.6813      	10114.4831    	29032   
1975 	989.1244      	10109.9519    	28299   
1976 	989.5676      	10105.4242    	27562   
1977 	990.0107      	10100.9005    	26828   
1978 	990.4539      	10096.3809    	26103   
1979 	990.8972      	10091.8647    	25376   
1980 	991.3405      	10087.3519    	24652   
1981 	991.7838      	10082.8431    	23942   
1982 	992.2271      	10078.3384    	23242   
1983 	992.6704      	10073.8371    	22543   
1984 	993.1138      	10069.3398    	21845   
1985 	993.5571      	10064.8465    	21156   
1986 	994.0005      	10060.3566    	20472   
1987 	994.4440      	10055.8701    	19792   
1988 	994.8875      	10051.3876    	19118   
1989 	995.3310      	10046.9091    	18457   
1990 	995.7745      	10042.4339    	17811   
1991 	996.2181      	10037.9628    	17174   
1992 	996.6616      	10033.4956    	16543   
1993 	997.1053      	10029.0312    	15916   
1994 	997.5489      	10024.5713    	15298   
1995 	997.9926      	10020.1148    	14697   
1996 	998.4362      	10015.6623    	14111   
1997 	998.8799      	10011.2131    	13535   
1998 	999.3237      	10006.7679    	12975   
1999 	999.7675      	10002.3260    	12429   
2000 	1000.2112     	9997.8880     	11900   
2001 	1000.6551     	9993.4534     	11386   
2002 	1001.0989     	9989.0227     	10880   
2003 	1001.5428     	9984.5959     	10388   
2004 	1001.9867     	9980.1724     	9913    
2005 	1002.4306     	9975.7529     	9457    
2006 	1002.8746     	9971.3367     	9020    
2007 	1003.3185     	9966.9243     	8597    
2008 	1003.7626     	9962.5153     	8190    
2009 	1004.2066     	9958.1102     	7800    
2010 	1004.6506     	9953.7089     	7425    
2011 	1005.0947     	9949.3110     	7068    
2012 	1005.5388     	9944.9169     	6729    
2013 	1005.9830     	9940.5261     	6405    
2014 	1006.4271     	9936.1392     	6095    
2015 	1006.8713     	9931.7556     	5801    
2016 	1007.3156     	9927.3758     	5521    
2017 	1007.7598     	9922.9998     	5254    
2018 	1008.2040     	9918.6272     	5002    
2019 	1008.6484     	9914.2578     	4761    
2020 	1009.0927     	9909.8928     	4532    
2021 	1009.5370     	9905.5305     	4315    
2022 	1009.9814     	9901.1726     	4111    
2023 	1010.4258     	9896.8179     	3918    
2024 	1010.8702     	9892.4665     	3737    
2025 	1011.3147     	9888.1189     	3568    
2026 	1011.7592     	9883.7752     	3408    
2027 	1012.2037     	9879.4346     	3257    
2028 	1012.6482     	9875.0979     	3116    
2029 	1013.0928     	9870.7643     	2985    
2030 	1013.5374     	9866.4346     	2862    
2031 	1013.9820     	9862.1081     	2747    
2032 	1014.4266     	9857.7853     	2640    
2033 	1014.8713     	9853.4664     	2542    
2034 	1015.3160     	9849.1506     	2449    
2035 	1015.7607     	9844.8386     	2364    
2036 	1016.2054     	9840.5298     	2285    
2037 	1016.6502     	9836.2248     	2213    
2038 	1017.0950     	9831.9230     	2146    
2039 	1017.5399     	9827.6249     	2104    
2040 	1017.9847     	9823.3305     	2066    
2041 	1018.4296     	9819.0394     	2031    
2042 	1018.8745     	9814.7519     	1999    
2043 	1019.3194     	9810.4677     	1968    
2044 	1019.7643     	9806.1872     	1941    
2045 	1020.2094     	9801.9098     	1915    
2046 	1020.6544     	9797.6361     	1891    
2047 	1021.0994     	9793.3656     	1869    
2048 	1021.5444     	9789.0994     	1848    
